EEG 1,EEG 2,EEG 3,EEG 4,EEG 5,EEG 6,EEG 7,EEG 8,Accelerometer X,Accelerometer Y,Accelerometer Z,Gyroscope X,Gyroscope Y,Gyroscope Z,Battery Level,Counter,Validation Indicator,State
750000.0625,386103.0625,750000.0625,647205.5,-298268.40625,729071.3125,365960.21875,587528.0625,-0.281005859375,0.7314453125,0.5849609375,0.0,0.0,0.0,73.33333587646484,1.0,1.0,WarmUp
750000.0625,179398.953125,750000.0625,750000.0625,-328930.96875,750000.0625,449550.46875,487076.1875,-0.2919921875,0.74267578125,0.58447265625,0.0,0.0,0.0,73.33333587646484,2.0,1.0,WarmUp
750000.0625,330196.4375,750000.0625,750000.0625,-241361.125,684396.3125,259597.90625,199070.28125,-0.293701171875,0.746826171875,0.5830078125,0.0,0.0,0.0,73.33333587646484,3.0,1.0,WarmUp
750000.0625,547560.25,713695.375,750000.0625,-130720.7890625,478666.125,125627.359375,71021.8671875,-0.293212890625,0.749755859375,0.583740234375,0.0,0.0,0.0,73.33333587646484,4.0,1.0,WarmUp
733792.5,589473.1875,750000.0625,691153.4375,-82300.0234375,620678.125,262649.5625,122202.7109375,-0.2919921875,0.75390625,0.5869140625,0.0,0.0,0.0,73.33333587646484,5.0,1.0,WarmUp
668049.875,633181.6875,750000.0625,739514.0,91187.1640625,750000.0625,420389.21875,487792.96875,-0.294677734375,0.755859375,0.590087890625,0.0,0.0,0.0,73.33333587646484,6.0,1.0,WarmUp
750000.0625,750000.0625,750000.0625,750000.0625,293894.4375,750000.0625,467166.59375,522379.0625,-0.29150390625,0.761474609375,0.5927734375,-11.016844749450684,-14.221190452575684,-8.270262718200684,73.33333587646484,7.0,1.0,WarmUp
750000.0625,750000.0625,750000.0625,750000.0625,366592.40625,708118.75,723490.5,552235.625,-0.288330078125,0.763427734375,0.59423828125,-13.732909202575684,-21.209714889526367,-11.169432640075684,73.33333587646484,8.0,1.0,WarmUp
750000.0625,750000.0625,750000.0625,750000.0625,530244.9375,718284.0625,750000.0625,658720.9375,-0.28369140625,0.76611328125,0.60009765625,-14.892577171325684,-23.925779342651367,-12.298583030700684,73.33333587646484,9.0,1.0,WarmUp
750000.0625,750000.0625,750000.0625,750000.0625,684765.8125,661647.6875,750000.0625,647260.9375,-0.27880859375,0.768310546875,0.603759765625,-15.319823265075684,-24.749753952026367,-12.725829124450684,73.33333587646484,10.0,1.0,WarmUp
750000.0625,750000.0625,750000.0625,750000.0625,750000.0625,750000.0625,750000.0625,750000.0625,-0.275146484375,0.767822265625,0.605712890625,-15.747069358825684,-25.054929733276367,-12.969969749450684,73.33333587646484,11.0,1.0,WarmUp
750000.0625,750000.0625,750000.0625,750000.0625,750000.0625,750000.0625,750000.0625,750000.0625,-0.273193359375,0.769287109375,0.612548828125,-15.899657249450684,-25.146482467651367,-13.031004905700684,73.33333587646484,12.0,1.0,WarmUp
750000.0625,750000.0625,750000.0625,750000.0625,750000.0625,750000.0625,750000.0625,750000.0625,-0.272705078125,0.76953125,0.614501953125,-16.204832077026367,-25.115964889526367,-13.122557640075684,73.33333587646484,13.0,1.0,WarmUp
750000.0625,750000.0625,750000.0625,750000.0625,750000.0625,750000.0625,750000.0625,750000.0625,-0.270263671875,0.76904296875,0.617919921875,-16.418455123901367,-24.963376998901367,-13.031004905700684,73.33333587646484,14.0,1.0,WarmUp
750000.0625,750000.0625,750000.0625,750000.0625,750000.0625,750000.0625,750000.0625,750000.0625,-0.270263671875,0.766357421875,0.621337890625,-16.693113327026367,-24.780271530151367,-13.000487327575684,73.33333587646484,15.0,1.0,WarmUp
717160.9375,750000.0625,750000.0625,750000.0625,750000.0625,750000.0625,750000.0625,750000.0625,-0.264404296875,0.7587890625,0.61767578125,-17.120359420776367,-24.658201217651367,-12.939452171325684,73.33333587646484,16.0,1.0,WarmUp
613539.25,750000.0625,750000.0625,750000.0625,750000.0625,750000.0625,750000.0625,750000.0625,-0.2626953125,0.751953125,0.614013671875,-16.906736373901367,-24.291990280151367,-12.725829124450684,73.33333587646484,17.0,1.0,WarmUp
527227.4375,750000.0625,750000.0625,750000.0625,750000.0625,750000.0625,750000.0625,750000.0625,-0.262939453125,0.745849609375,0.619140625,-16.693113327026367,-23.925779342651367,-12.451170921325684,73.33333587646484,18.0,1.0,WarmUp
474338.0,750000.0625,750000.0625,750000.0625,750000.0625,750000.0625,750000.0625,750000.0625,-0.263671875,0.740966796875,0.620849609375,-16.662595748901367,-23.590085983276367,-12.268065452575684,73.33333587646484,19.0,1.0,WarmUp
455500.0625,750000.0625,750000.0625,750000.0625,750000.0625,750000.0625,750000.0625,750000.0625,-0.267578125,0.7392578125,0.62109375,-16.662595748901367,-23.345945358276367,-12.084959983825684,73.33333587646484,20.0,1.0,WarmUp
442341.03125,750000.0625,750000.0625,750000.0625,750000.0625,750000.0625,750000.0625,750000.0625,-0.267578125,0.73291015625,0.619140625,-16.601560592651367,-22.979734420776367,-11.962889671325684,73.33333587646484,21.0,1.0,WarmUp
429877.53125,750000.0625,750000.0625,750000.0625,750000.0625,750000.0625,750000.0625,750000.0625,-0.268798828125,0.72998046875,0.62060546875,-16.326902389526367,-22.674558639526367,-11.993407249450684,73.33333587646484,22.0,1.0,WarmUp
418024.125,750000.0625,750000.0625,750000.0625,750000.0625,750000.0625,750000.0625,750000.0625,-0.2705078125,0.7255859375,0.62353515625,-16.082761764526367,-22.399900436401367,-12.023924827575684,73.33333587646484,23.0,1.0,WarmUp
407038.53125,750000.0625,750000.0625,750000.0625,750000.0625,750000.0625,750000.0625,750000.0625,-0.272216796875,0.722412109375,0.623046875,-15.686034202575684,-22.064207077026367,-12.054442405700684,73.33333587646484,24.0,1.0,WarmUp
397271.78125,750000.0625,750000.0625,750000.0625,750000.0625,750000.0625,750000.0625,750000.0625,-0.2724609375,0.72314453125,0.62451171875,-15.228270530700684,-21.789548873901367,-12.145995140075684,73.33333587646484,25.0,1.0,WarmUp
388666.8125,750000.0625,750000.0625,750000.0625,750000.0625,750000.0625,750000.0625,750000.0625,-0.2724609375,0.72314453125,0.62744140625,-14.831542015075684,-21.453855514526367,-12.298583030700684,73.33333587646484,26.0,1.0,WarmUp
380314.78125,750000.0625,750000.0625,750000.0625,750000.0625,750000.0625,750000.0625,750000.0625,-0.27197265625,0.7236328125,0.629150390625,-14.465331077575684,-21.057126998901367,-12.329100608825684,73.33333587646484,27.0,1.0,WarmUp
372155.75,750000.0625,750000.0625,750000.0625,750000.0625,750000.0625,750000.0625,750000.0625,-0.271240234375,0.721435546875,0.629638671875,-14.160155296325684,-20.782468795776367,-12.298583030700684,73.33333587646484,28.0,1.0,WarmUp
364480.15625,750000.0625,750000.0625,750000.0625,750000.0625,750000.0625,750000.0625,750000.0625,-0.271728515625,0.72119140625,0.6328125,-13.671874046325684,-20.385740280151367,-12.298583030700684,73.33333587646484,29.0,1.0,WarmUp
357712.15625,750000.0625,750000.0625,750000.0625,750000.0625,750000.0625,750000.0625,750000.0625,-0.27197265625,0.72265625,0.635498046875,-13.275145530700684,-19.897459030151367,-12.329100608825684,73.33333587646484,30.0,1.0,WarmUp
351802.0,750000.0625,750000.0625,750000.0625,750000.0625,750000.0625,750000.0625,750000.0625,-0.268798828125,0.7236328125,0.63427734375,-12.908934593200684,-19.500730514526367,-12.176512718200684,73.33333587646484,31.0,1.0,WarmUp
345962.375,750000.0625,750000.0625,750000.0625,750000.0625,750000.0625,750000.0625,750000.0625,-0.267822265625,0.725830078125,0.63623046875,-12.512206077575684,-19.104001998901367,-12.084959983825684,73.33333587646484,32.0,1.0,WarmUp
340123.125,750000.0625,750000.0625,750000.0625,750000.0625,750000.0625,750000.0625,750000.0625,-0.2685546875,0.72265625,0.6416015625,-12.176512718200684,-18.646238327026367,-11.962889671325684,73.33333587646484,33.0,1.0,WarmUp
334572.90625,750000.0625,750000.0625,750000.0625,750000.0625,750000.0625,750000.0625,750000.0625,-0.267333984375,0.72412109375,0.641357421875,-11.779784202575684,-18.280027389526367,-11.932372093200684,73.33333587646484,34.0,1.0,WarmUp
329715.15625,750000.0625,750000.0625,750000.0625,750000.0625,750000.0625,750000.0625,750000.0625,-0.266845703125,0.722900390625,0.641357421875,-11.413573265075684,-17.883298873901367,-11.688231468200684,73.33333587646484,35.0,1.0,WarmUp
325522.875,750000.0625,750000.0625,750000.0625,750000.0625,750000.0625,750000.0625,750000.0625,-0.26708984375,0.723876953125,0.64697265625,-10.986327171325684,-17.333982467651367,-11.535643577575684,73.33333587646484,36.0,1.0,WarmUp
321286.9375,750000.0625,750000.0625,750000.0625,750000.0625,750000.0625,750000.0625,750000.0625,-0.266357421875,0.725341796875,0.651123046875,-10.437010765075684,-16.967771530151367,-11.413573265075684,73.33333587646484,37.0,1.0,WarmUp
316938.1875,750000.0625,750000.0625,750000.0625,750000.0625,750000.0625,750000.0625,750000.0625,-0.267822265625,0.720947265625,0.6494140625,-9.979247093200684,-16.479490280151367,-11.199950218200684,73.33333587646484,38.0,1.0,WarmUp
312799.28125,750000.0625,750000.0625,750000.0625,750000.0625,750000.0625,750000.0625,750000.0625,-0.27001953125,0.71923828125,0.649658203125,-9.582518577575684,-15.838622093200684,-11.016844749450684,73.33333587646484,39.0,1.0,WarmUp
309203.6875,750000.0625,750000.0625,750000.0625,750000.0625,750000.0625,750000.0625,750000.0625,-0.2705078125,0.717041015625,0.649169921875,-9.277342796325684,-15.411375999450684,-10.894774436950684,73.33333587646484,40.0,1.0,WarmUp
306178.9375,750000.0625,750000.0625,750000.0625,750000.0625,750000.0625,750000.0625,750000.0625,-0.272705078125,0.714599609375,0.647705078125,-8.850096702575684,-14.862059593200684,-10.681151390075684,73.33333587646484,41.0,1.0,WarmUp
303027.4375,750000.0625,750000.0625,750000.0625,750000.0625,750000.0625,750000.0625,750000.0625,-0.276611328125,0.712890625,0.649658203125,-8.239745140075684,-14.373778343200684,-10.620116233825684,73.33333587646484,42.0,1.0,WarmUp
299723.6875,750000.0625,750000.0625,750000.0625,750000.0625,750000.0625,750000.0625,750000.0625,-0.278076171875,0.71142578125,0.65234375,-7.843017101287842,-13.885497093200684,-10.467528343200684,73.33333587646484,43.0,1.0,WarmUp
296563.40625,750000.0625,750000.0625,750000.0625,750000.0625,750000.0625,750000.0625,750000.0625,-0.279296875,0.70751953125,0.652587890625,-7.324218273162842,-13.488768577575684,-10.375975608825684,73.33333587646484,44.0,1.0,WarmUp
293868.3125,750000.0625,750000.0625,750000.0625,750000.0625,750000.0625,750000.0625,750000.0625,-0.278564453125,0.706787109375,0.650146484375,-6.805419445037842,-13.092040061950684,-10.131834983825684,73.33333587646484,45.0,1.0,WarmUp
291616.34375,750000.0625,750000.0625,750000.0625,750000.0625,750000.0625,750000.0625,750000.0625,-0.279052734375,0.705810546875,0.649658203125,-6.286620616912842,-12.603758811950684,-9.979247093200684,73.33333587646484,46.0,1.0,WarmUp
289176.6875,750000.0625,750000.0625,750000.0625,750000.0625,750000.0625,750000.0625,750000.0625,-0.279052734375,0.70458984375,0.651611328125,-5.859374523162842,-12.145995140075684,-9.857176780700684,73.33333587646484,47.0,1.0,WarmUp
286619.75,750000.0625,750000.0625,750000.0625,750000.0625,750000.0625,750000.0625,750000.0625,-0.278564453125,0.701904296875,0.6494140625,-5.371093273162842,-11.810301780700684,-9.643553733825684,73.33333587646484,48.0,1.0,WarmUp
284160.6875,750000.0625,750000.0625,750000.0625,750000.0625,750000.0625,750000.0625,750000.0625,-0.279296875,0.69970703125,0.646484375,-4.730224132537842,-11.322020530700684,-9.552000999450684,73.33333587646484,49.0,1.0,WarmUp
282067.6875,750000.0625,750000.0625,750000.0625,750000.0625,750000.0625,750000.0625,750000.0625,-0.27880859375,0.7001953125,0.643798828125,-4.089354991912842,-10.803221702575684,-9.399413108825684,73.33333587646484,50.0,1.0,WarmUp
280398.53125,750000.0625,750000.0625,750000.0625,750000.0625,750000.0625,750000.0625,750000.0625,-0.27880859375,0.7001953125,0.644287109375,-3.631591558456421,-10.314940452575684,-9.277342796325684,73.33333587646484,51.0,1.0,WarmUp
278581.96875,750000.0625,750000.0625,750000.0625,750000.0625,750000.0625,750000.0625,750000.0625,-0.27587890625,0.698974609375,0.64453125,-3.051757574081421,-9.857176780700684,-8.972167015075684,73.33333587646484,52.0,1.0,WarmUp
276562.4375,750000.0625,750000.0625,750000.0625,750000.0625,750000.0625,750000.0625,750000.0625,-0.275390625,0.7001953125,0.641357421875,-2.563476324081421,-9.277342796325684,-8.697508811950684,73.33333587646484,53.0,1.0,WarmUp
274626.59375,750000.0625,750000.0625,750000.0625,750000.0625,750000.0625,750000.0625,750000.0625,-0.275634765625,0.70263671875,0.64306640625,-2.044677495956421,-8.728026390075684,-8.514403343200684,73.33333587646484,54.0,1.0,WarmUp
272995.09375,750000.0625,750000.0625,750000.0625,750000.0625,750000.0625,750000.0625,750000.0625,-0.275146484375,0.705078125,0.64404296875,-1.5258787870407104,-8.148192405700684,-8.270262718200684,73.33333587646484,55.0,1.0,WarmUp
271736.78125,750000.0625,750000.0625,750000.0625,750000.0625,750000.0625,750000.0625,750000.0625,-0.275146484375,0.7080078125,0.644775390625,-1.0986326932907104,-7.537841320037842,-8.209227561950684,73.33333587646484,56.0,1.0,WarmUp
270334.15625,750000.0625,750000.0625,750000.0625,750000.0625,750000.0625,750000.0625,750000.0625,-0.275634765625,0.710693359375,0.645263671875,-0.5187987685203552,-6.927489757537842,-7.995604991912842,73.33333587646484,57.0,1.0,WarmUp
268729.59375,750000.0625,750000.0625,750000.0625,750000.0625,750000.0625,750000.0625,750000.0625,-0.276123046875,0.71533203125,0.646484375,-0.1220703050494194,-6.347655773162842,-7.873534679412842,73.33333587646484,58.0,1.0,WarmUp
267175.875,750000.0625,750000.0625,750000.0625,750000.0625,750000.0625,750000.0625,750000.0625,-0.278564453125,0.71826171875,0.645263671875,0.2746581733226776,-5.828856945037842,-7.720946788787842,73.33333587646484,59.0,1.0,WarmUp
265894.3125,750000.0625,750000.0625,750000.0625,750000.0625,750000.0625,750000.0625,750000.0625,-0.281005859375,0.7197265625,0.643798828125,0.6103515028953552,-5.371093273162842,-7.537841320037842,73.33333587646484,60.0,1.0,WarmUp
264963.84375,750000.0625,750000.0625,750000.0625,750000.0625,750000.0625,750000.0625,750000.0625,-0.280029296875,0.720458984375,0.646484375,0.8544921278953552,-4.913329601287842,-7.354735851287842,73.33333587646484,61.0,1.0,WarmUp
263880.5,750000.0625,750000.0625,750000.0625,750000.0625,750000.0625,750000.0625,750000.0625,-0.280029296875,0.720947265625,0.647705078125,1.0681151151657104,-4.394530773162842,-7.171630382537842,73.33333587646484,62.0,1.0,WarmUp
262582.84375,750000.0625,750000.0625,750000.0625,750000.0625,750000.0625,750000.0625,750000.0625,-0.27734375,0.723388671875,0.64453125,1.2817381620407104,-3.845214605331421,-6.988524913787842,73.33333587646484,63.0,1.0,WarmUp
261316.40625,750000.0625,750000.0625,750000.0625,750000.0625,750000.0625,750000.0625,750000.0625,-0.2783203125,0.72216796875,0.641357421875,1.4953612089157104,-3.295898199081421,-6.805419445037842,73.33333587646484,64.0,1.0,WarmUp
260334.0,750000.0625,750000.0625,750000.0625,750000.0625,750000.0625,750000.0625,750000.0625,-0.2802734375,0.72314453125,0.6396484375,1.6174315214157104,-2.746581792831421,-6.683349132537842,73.33333587646484,65.0,1.0,WarmUp
259663.265625,750000.0625,750000.0625,750000.0625,750000.0625,750000.0625,750000.0625,750000.0625,-0.2822265625,0.72265625,0.639892578125,1.7089842557907104,-2.288818120956421,-6.652831554412842,73.33333587646484,66.0,1.0,WarmUp
258803.890625,750000.0625,750000.0625,750000.0625,750000.0625,750000.0625,750000.0625,750000.0625,-0.28369140625,0.724609375,0.6396484375,1.7700194120407104,-1.7089842557907104,-6.408690929412842,73.33333587646484,67.0,1.0,WarmUp
257768.5625,750000.0625,750000.0625,750000.0625,750000.0625,750000.0625,750000.0625,750000.0625,-0.284423828125,0.721923828125,0.640380859375,1.8310545682907104,-1.1901854276657104,-6.195067882537842,73.33333587646484,68.0,1.0,WarmUp
256733.578125,750000.0625,750000.0625,750000.0625,750000.0625,750000.0625,750000.0625,750000.0625,-0.283447265625,0.719970703125,0.638427734375,2.105712652206421,-0.7629393935203552,-6.103515148162842,73.33333587646484,69.0,1.0,WarmUp
255925.78125,750000.0625,750000.0625,750000.0625,750000.0625,750000.0625,750000.0625,750000.0625,-0.286865234375,0.71875,0.635498046875,2.197265386581421,-0.2136230319738388,-5.950927257537842,73.33333587646484,70.0,1.0,WarmUp
255463.375,750000.0625,750000.0625,750000.0625,750000.0625,750000.0625,750000.0625,750000.0625,-0.28857421875,0.7197265625,0.63623046875,2.288818120956421,0.2136230319738388,-5.981444835662842,73.33333587646484,71.0,1.0,WarmUp
254802.65625,750000.0625,750000.0625,750000.0625,750000.0625,750000.0625,750000.0625,750000.0625,-0.2890625,0.71630859375,0.63818359375,2.532958745956421,0.6408690810203552,-6.011962413787842,73.33333587646484,72.0,1.0,WarmUp
253930.21875,750000.0625,750000.0625,750000.0625,750000.0625,750000.0625,750000.0625,750000.0625,-0.29248046875,0.718505859375,0.636962890625,2.532958745956421,1.1901854276657104,-5.981444835662842,73.33333587646484,73.0,1.0,WarmUp
253080.234375,750000.0625,750000.0625,750000.0625,750000.0625,750000.0625,750000.0625,750000.0625,-0.294921875,0.71728515625,0.6376953125,2.655029058456421,1.5563963651657104,-5.981444835662842,73.33333587646484,74.0,1.0,WarmUp
252445.796875,750000.0625,750000.0625,750000.0625,750000.0625,750000.0625,750000.0625,750000.0625,-0.2998046875,0.71875,0.634033203125,2.929687261581421,1.8615721464157104,-6.011962413787842,73.33333587646484,75.0,1.0,WarmUp
252100.328125,749466.875,749939.3125,749715.5625,749860.625,750000.0625,749812.1875,750000.0625,-0.30419921875,0.720703125,0.630859375,2.990722417831421,2.136230230331421,-6.042479991912842,73.33333587646484,76.0,1.0,WarmUp
251610.296875,747873.125,748345.1875,748122.0625,748266.8125,748606.1875,748218.3125,748746.5625,-0.30712890625,0.7216796875,0.63134765625,3.051757574081421,2.288818120956421,-6.011962413787842,73.33333587646484,77.0,1.0,WarmUp
250900.484375,746168.5625,746640.1875,746417.75,746562.9375,746901.125,746514.4375,747041.75,-0.30810546875,0.721435546875,0.632568359375,3.204345464706421,2.380370855331421,-5.981444835662842,73.33333587646484,78.0,1.0,WarmUp
250180.5,744459.375,744930.3125,744708.9375,744853.5,745191.0,744805.875,745331.75,-0.309326171875,0.7216796875,0.630859375,3.295898199081421,2.624511480331421,-5.828856945037842,73.33333587646484,79.0,1.0,WarmUp
249658.09375,742878.4375,743349.5625,743128.3125,743272.9375,743609.3125,743225.75,743749.875,-0.3095703125,0.718505859375,0.627685546875,3.356933355331421,2.685546636581421,-5.798339366912842,73.33333587646484,80.0,1.0,WarmUp
249426.890625,741582.4375,742053.1875,741832.8125,741976.9375,742312.625,741930.1875,742453.1875,-0.30859375,0.717041015625,0.628173828125,3.509521245956421,2.868652105331421,-5.767821788787842,73.33333587646484,81.0,1.0,WarmUp
249054.6875,740337.9375,740808.4375,740588.4375,740732.3125,741067.5,740685.5,741208.125,-0.311279296875,0.71923828125,0.625244140625,3.723144292831421,2.838134527206421,-5.950927257537842,73.33333587646484,82.0,1.0,WarmUp
248456.546875,738969.375,739439.9375,739219.6875,739363.625,739698.125,739317.25,739838.5625,-0.31396484375,0.71826171875,0.626708984375,3.906249761581421,3.051757574081421,-5.828856945037842,73.33333587646484,83.0,1.0,WarmUp
247860.203125,737578.375,738049.1875,737829.25,737973.125,738306.875,737927.125,738447.25,-0.315673828125,0.71923828125,0.62353515625,4.058837413787842,3.021239995956421,-5.950927257537842,73.33333587646484,84.0,1.0,WarmUp
247446.15625,736302.5,736772.625,736553.75,736696.875,737030.5,736651.75,737170.75,-0.31787109375,0.71826171875,0.62451171875,4.241942882537842,3.051757574081421,-5.889892101287842,73.33333587646484,85.0,1.0,WarmUp
247276.5625,735280.3125,735749.625,735531.5,735674.6875,736007.75,735629.3125,736147.875,-0.318115234375,0.718994140625,0.623046875,4.455565929412842,3.051757574081421,-5.798339366912842,73.33333587646484,86.0,1.0,WarmUp
246989.296875,734308.8125,734777.8125,734559.875,734702.6875,735035.625,734657.875,735175.625,-0.319091796875,0.721435546875,0.623291015625,4.547118663787842,3.143310308456421,-5.798339366912842,73.33333587646484,87.0,1.0,WarmUp
246476.453125,733198.875,733668.0625,733450.25,733593.125,733925.375,733548.4375,734065.5,-0.32080078125,0.7236328125,0.619384765625,4.638671398162842,3.173827886581421,-5.767821788787842,73.33333587646484,88.0,1.0,WarmUp
245950.03125,732057.375,732526.0625,732309.0,732451.6875,732783.5,732407.9375,732923.1875,-0.322509765625,0.7255859375,0.622314453125,4.730224132537842,3.143310308456421,-5.737304210662842,73.33333587646484,89.0,1.0,WarmUp
245600.0,731017.5,731486.0,731268.9375,731410.875,731742.75,731367.875,731882.25,-0.325439453125,0.727783203125,0.6201171875,4.791259288787842,3.021239995956421,-5.737304210662842,73.33333587646484,90.0,1.0,WarmUp
245506.65625,730224.3125,730692.5,730475.5,730617.3125,730948.8125,730574.25,731088.3125,-0.32861328125,0.728515625,0.618896484375,4.791259288787842,2.929687261581421,-5.676269054412842,73.33333587646484,91.0,1.0,WarmUp
245288.328125,729464.875,729932.5625,729716.4375,729858.1875,730189.25,729814.875,730328.1875,-0.331298828125,0.7294921875,0.619140625,4.730224132537842,2.807616949081421,-5.615233898162842,73.33333587646484,92.0,1.0,WarmUp
244862.296875,728566.6875,729034.1875,728818.4375,728960.3125,729290.875,728916.625,729429.75,-0.333984375,0.730224609375,0.618896484375,4.791259288787842,2.624511480331421,-5.615233898162842,73.33333587646484,93.0,1.0,WarmUp
244401.9375,727621.3125,728089.0,727873.5,728015.125,728345.3125,727972.1875,728484.25,-0.33544921875,0.732666015625,0.619873046875,4.760741710662842,2.441406011581421,-5.462646007537842,73.33333587646484,94.0,1.0,WarmUp
244129.609375,726772.8125,727240.3125,727024.9375,727166.375,727496.375,727124.125,727635.0625,-0.3388671875,0.732177734375,0.6171875,4.608153820037842,2.227782964706421,-5.493163585662842,73.33333587646484,95.0,1.0,WarmUp
244093.75,726160.1875,726627.4375,726412.75,726553.75,726883.4375,726512.0,727022.5,-0.3388671875,0.732421875,0.61669921875,4.455565929412842,1.8310545682907104,-5.432128429412842,73.33333587646484,96.0,1.0,WarmUp
243936.046875,725576.3125,726042.75,725828.5625,725969.375,726298.625,725927.75,726437.875,-0.341796875,0.734619140625,0.617919921875,4.333495616912842,1.5869139432907104,-5.371093273162842,73.33333587646484,97.0,1.0,WarmUp
243566.96875,724845.9375,725312.4375,725098.3125,725238.9375,725568.125,725197.375,725707.0625,-0.34228515625,0.736083984375,0.6162109375,4.211425304412842,1.2817381620407104,-5.371093273162842,73.33333587646484,98.0,1.0,WarmUp
243169.46875,724061.625,724527.875,724313.9375,724454.5625,724783.4375,724413.375,724922.1875,-0.340087890625,0.736083984375,0.61767578125,4.028319835662842,0.9765624403953552,-5.310058116912842,73.33333587646484,99.0,1.0,WarmUp
242940.046875,723360.4375,723826.6875,723612.8125,723753.8125,724082.0,723712.0,724220.5,-0.341796875,0.73681640625,0.615966796875,3.784179449081421,0.7324218153953552,-5.310058116912842,73.33333587646484,100.0,1.0,WarmUp
242978.140625,722900.4375,723366.3125,723152.625,723293.625,723622.0,723251.875,723760.0625,-0.3408203125,0.73486328125,0.61376953125,3.753661870956421,0.4272460639476776,-5.249022960662842,73.33333587646484,101.0,1.0,WarmUp
242830.96875,722431.8125,722897.8125,722684.125,722824.9375,723152.8125,722783.8125,723291.125,-0.339599609375,0.736572265625,0.613037109375,3.540038824081421,0.2441406100988388,-5.249022960662842,73.33333587646484,102.0,1.0,WarmUp
242504.1875,721827.1875,722293.625,722080.1875,722220.1875,722548.625,722180.25,722686.8125,-0.33984375,0.73583984375,0.6123046875,3.326415777206421,-0.0610351525247097,-5.096435070037842,73.33333587646484,103.0,1.0,WarmUp
242168.5625,721179.3125,721645.6875,721432.375,721572.4375,721899.9375,721532.5625,722038.625,-0.33642578125,0.733154296875,0.610595703125,3.173827886581421,-0.2746581733226776,-4.974364757537842,73.33333587646484,104.0,1.0,WarmUp
241969.984375,720594.25,721060.5,720847.625,720987.8125,721314.8125,720947.5,721453.375,-0.333740234375,0.735595703125,0.613525390625,3.051757574081421,-0.3967284858226776,-4.791259288787842,73.33333587646484,105.0,1.0,WarmUp
242016.203125,720231.875,720698.125,720484.9375,720625.3125,720952.3125,720585.125,721090.75,-0.333984375,0.73583984375,0.61181640625,2.929687261581421,-0.5798339247703552,-4.669188976287842,73.33333587646484,106.0,1.0,WarmUp
241961.9375,719898.375,720364.3125,720151.625,720292.0,720618.5,720251.5,720756.875,-0.333740234375,0.736083984375,0.609130859375,2.929687261581421,-0.7019042372703552,-4.516601085662842,73.33333587646484,107.0,1.0,WarmUp
241679.671875,719407.0,719873.1875,719660.3125,719800.6875,720126.5625,719760.0,720265.25,-0.33203125,0.737548828125,0.6064453125,2.899169683456421,-0.7629393935203552,-4.241942882537842,73.33333587646484,108.0,1.0,WarmUp
241377.484375,718852.25,719318.4375,719105.1875,719245.4375,719571.625,719205.25,719710.125,-0.33056640625,0.739013671875,0.607421875,2.777099370956421,-0.7629393935203552,-4.180907726287842,73.33333587646484,109.0,1.0,WarmUp
241199.390625,718357.5625,718823.4375,718610.6875,718750.6875,719076.9375,718710.625,719215.3125,-0.329345703125,0.739013671875,0.6103515625,2.624511480331421,-0.8544921278953552,-3.906249761581421,73.33333587646484,110.0,1.0,WarmUp
241256.421875,718081.375,718547.3125,718334.9375,718475.0625,718800.75,718435.25,718938.8125,-0.32763671875,0.7392578125,0.610107421875,2.410888433456421,-0.8850097060203552,-3.753661870956421,73.33333587646484,111.0,1.0,WarmUp
241217.0,717835.0,718301.25,718088.25,718228.5625,718554.1875,718188.75,718692.3125,-0.326416015625,0.739501953125,0.6103515625,2.319335699081421,-0.8239745497703552,-3.479003667831421,73.33333587646484,112.0,1.0,WarmUp
240969.96875,717429.25,717895.125,717682.75,717822.625,718148.6875,717783.0625,718286.5,-0.3251953125,0.74072265625,0.60986328125,2.136230230331421,-0.6408690810203552,-3.265380620956421,73.33333587646484,113.0,1.0,WarmUp
240708.546875,716955.6875,717421.125,717209.3125,717349.25,717674.75,717309.375,717812.6875,-0.32421875,0.739013671875,0.611083984375,1.9836424589157104,-0.6408690810203552,-3.051757574081421,73.33333587646484,114.0,1.0,WarmUp
240582.03125,716543.125,717008.25,716796.875,716936.625,717262.125,716897.0,717399.9375,-0.32275390625,0.736328125,0.608642578125,1.7395018339157104,-0.5798339247703552,-2.716064214706421,73.33333587646484,115.0,1.0,WarmUp
240682.078125,716341.8125,716807.25,716595.875,716735.375,717060.5625,716695.875,717198.5,-0.321044921875,0.734375,0.6103515625,1.6174315214157104,-0.4577636420726776,-2.532958745956421,73.33333587646484,116.0,1.0,WarmUp
240683.953125,716163.8125,716629.25,716417.6875,716557.25,716882.4375,716517.75,717019.9375,-0.322021484375,0.734619140625,0.612548828125,1.5563963651657104,-0.3051757514476776,-2.380370855331421,73.33333587646484,117.0,1.0,WarmUp
240462.84375,715823.6875,716289.25,716077.5,716217.3125,716541.875,716177.4375,716679.9375,-0.32421875,0.734375,0.61474609375,1.4038084745407104,-0.1220703050494194,-2.441406011581421,73.33333587646484,118.0,1.0,WarmUp
240216.625,715419.75,715884.75,715673.375,715813.3125,716138.125,715773.8125,716275.625,-0.327392578125,0.7333984375,0.61376953125,1.2207030057907104,0.0610351525247097,-2.227782964706421,73.33333587646484,119.0,1.0,WarmUp
240095.484375,715065.5,715530.4375,715319.4375,715458.875,715783.625,715419.5625,715921.125,-0.327880859375,0.733642578125,0.617919921875,1.0986326932907104,0.2441406100988388,-2.014159917831421,73.33333587646484,120.0,1.0,WarmUp
240212.515625,714930.625,715395.3125,715184.625,715324.0625,715648.6875,715284.5625,715785.875,-0.32958984375,0.733642578125,0.6123046875,0.9460448622703552,0.3662109076976776,-2.075195074081421,73.33333587646484,121.0,1.0,WarmUp
240191.5,714798.875,715263.375,715052.625,715192.125,715516.8125,715153.1875,715654.0,-0.328125,0.7314453125,0.6123046875,0.8544921278953552,0.4272460639476776,-1.9531248807907104,73.33333587646484,122.0,1.0,WarmUp
239983.984375,714512.1875,714976.5625,714766.1875,714905.8125,715229.8125,714866.3125,715367.5,-0.329833984375,0.73193359375,0.61279296875,0.8544921278953552,0.5798339247703552,-1.6479490995407104,73.33333587646484,123.0,1.0,WarmUp
239752.0625,714162.25,714626.6875,714416.4375,714555.625,714879.625,714516.125,715016.9375,-0.329345703125,0.730712890625,0.611083984375,0.7324218153953552,0.5493163466453552,-1.6174315214157104,73.33333587646484,124.0,1.0,WarmUp
239636.28125,713859.125,714323.25,714112.9375,714252.4375,714576.5625,714213.3125,714713.6875,-0.3271484375,0.730224609375,0.61376953125,0.7019042372703552,0.6713866591453552,-1.6479490995407104,73.33333587646484,125.0,1.0,WarmUp
239754.65625,713760.0,714224.375,714014.375,714153.9375,714477.6875,714114.875,714615.1875,-0.326904296875,0.730712890625,0.609130859375,0.6103515028953552,0.7324218153953552,-1.5563963651657104,73.33333587646484,126.0,1.0,WarmUp
239777.09375,713686.875,714150.625,713941.1875,714080.0625,714404.0625,714041.0625,714541.75,-0.325927734375,0.73095703125,0.609375,0.6408690810203552,0.8239745497703552,-1.5563963651657104,73.33333587646484,127.0,1.0,WarmUp
239587.46875,713453.5,713917.25,713707.75,713847.0625,714171.0,713808.0,714308.3125,-0.3251953125,0.73095703125,0.61083984375,0.6713866591453552,0.9460448622703552,-1.4648436307907104,73.33333587646484,128.0,1.0,WarmUp
239360.90625,713139.6875,713603.875,713394.375,713533.25,713857.375,713494.8125,713994.4375,-0.32421875,0.73095703125,0.60986328125,0.6103515028953552,1.1901854276657104,-1.3732908964157104,73.33333587646484,129.0,1.0,WarmUp
239263.984375,712874.5625,713338.375,713129.125,713267.6875,713591.8125,713229.5625,713729.125,-0.32373046875,0.732421875,0.610595703125,0.5798339247703552,1.3122557401657104,-1.2512205839157104,73.33333587646484,130.0,1.0,WarmUp
239396.671875,712815.5625,713279.3125,713070.6875,713208.625,713533.0625,713170.6875,713670.75,-0.322998046875,0.732421875,0.611328125,0.5798339247703552,1.4953612089157104,-1.0681151151657104,73.33333587646484,131.0,1.0,WarmUp
239426.171875,712781.875,713245.8125,713036.75,713175.0625,713499.25,713137.25,713636.875,-0.322998046875,0.73486328125,0.60791015625,0.5187987685203552,1.6479490995407104,-1.0070799589157104,73.33333587646484,132.0,1.0,WarmUp
239251.5625,712583.1875,713046.9375,712837.875,712976.5,713300.0,712938.6875,713437.75,-0.324462890625,0.73291015625,0.608642578125,0.4577636420726776,1.8920897245407104,-0.9155272841453552,73.33333587646484,133.0,1.0,WarmUp
239037.34375,712307.3125,712770.875,712561.875,712700.1875,713024.0,712662.3125,713161.4375,-0.323486328125,0.7353515625,0.609375,0.3967284858226776,2.014159917831421,-0.7324218153953552,73.33333587646484,134.0,1.0,WarmUp
238944.8125,712075.5625,712538.6875,712330.125,712468.125,712792.4375,712430.875,712929.375,-0.325439453125,0.7333984375,0.61181640625,0.3967284858226776,2.105712652206421,-0.7324218153953552,73.33333587646484,135.0,1.0,WarmUp
239083.84375,712043.75,712507.3125,712299.0625,712436.75,712761.25,712399.5,712897.9375,-0.326416015625,0.7333984375,0.610595703125,0.3662109076976776,2.319335699081421,-0.5798339247703552,73.33333587646484,136.0,1.0,WarmUp
239141.859375,712042.3125,712505.6875,712297.3125,712435.6875,712759.875,712397.6875,712896.75,-0.32763671875,0.735107421875,0.612548828125,0.3967284858226776,2.380370855331421,-0.4272460639476776,73.33333587646484,137.0,1.0,WarmUp
238974.578125,711872.9375,712336.4375,712128.25,712266.625,712590.125,712228.875,712727.1875,-0.329345703125,0.735107421875,0.614013671875,0.3662109076976776,2.349853277206421,-0.3051757514476776,73.33333587646484,138.0,1.0,WarmUp
238773.140625,711623.8125,712086.8125,711878.6875,712017.0,712340.375,711979.625,712477.4375,-0.33251953125,0.73486328125,0.611572265625,0.3356933295726776,2.319335699081421,-0.1831054538488388,73.33333587646484,139.0,1.0,WarmUp
238693.390625,711414.375,711877.25,711669.0,711807.5,712130.75,711769.9375,712268.25,-0.333740234375,0.73291015625,0.61328125,0.3662109076976776,2.349853277206421,-0.1220703050494194,73.33333587646484,140.0,1.0,WarmUp
238862.90625,711416.1875,711878.75,711670.5625,711809.125,712132.5,711771.5625,712270.1875,-0.333251953125,0.732421875,0.614013671875,0.3967284858226776,2.441406011581421,-0.03051757626235485,73.33333587646484,141.0,1.0,WarmUp
238890.890625,711424.125,711886.4375,711678.3125,711817.0,712140.125,711778.9375,712278.1875,-0.33447265625,0.731689453125,0.613037109375,0.4272460639476776,2.502441167831421,0.0,73.33333587646484,142.0,1.0,WarmUp
238729.421875,711272.125,711734.1875,711526.5,711665.1875,711988.1875,711627.1875,712125.5625,-0.333251953125,0.7314453125,0.610595703125,0.4272460639476776,2.441406011581421,0.0915527269244194,73.33333587646484,143.0,1.0,WarmUp
238544.171875,711053.0,711514.875,711307.1875,711445.875,711768.875,711408.25,711905.875,-0.332763671875,0.73095703125,0.6123046875,0.3662109076976776,2.288818120956421,0.1220703050494194,73.33333587646484,144.0,1.0,WarmUp
238463.078125,710863.9375,711325.25,711117.9375,711256.5625,711579.25,711218.9375,711716.3125,-0.333984375,0.73046875,0.612548828125,0.3051757514476776,2.319335699081421,0.1220703050494194,73.33333587646484,145.0,1.0,WarmUp
238614.8125,710867.25,711328.5625,711121.3125,711259.75,711582.5625,711222.0625,711719.875,-0.335205078125,0.73095703125,0.61083984375,0.3356933295726776,2.288818120956421,0.1831054538488388,73.33333587646484,146.0,1.0,WarmUp
238685.703125,710906.75,711368.25,711160.5,711299.25,711622.6875,711261.875,711759.625,-0.336181640625,0.729248046875,0.611328125,0.4272460639476776,2.227782964706421,0.2136230319738388,73.33333587646484,147.0,1.0,WarmUp
238529.609375,710782.5625,711244.1875,711036.5625,711175.5625,711498.875,711137.875,711635.6875,-0.3330078125,0.73046875,0.612060546875,0.5187987685203552,2.197265386581421,0.3051757514476776,73.33333587646484,148.0,1.0,WarmUp
238333.796875,710570.3125,711031.4375,710824.75,710963.5,711286.25,710925.5,711423.5,-0.333740234375,0.732666015625,0.6142578125,0.4577636420726776,2.227782964706421,0.4272460639476776,73.33333587646484,149.0,1.0,WarmUp
238242.15625,710389.6875,710850.9375,710644.4375,710782.4375,711105.9375,710745.1875,711243.0625,-0.3310546875,0.732421875,0.610595703125,0.3967284858226776,2.197265386581421,0.4272460639476776,73.33333587646484,150.0,1.0,WarmUp
238415.96875,710416.625,710877.875,710671.3125,710809.0,711132.75,710772.0,711269.75,-0.3310546875,0.73291015625,0.612548828125,0.4577636420726776,2.258300542831421,0.4882812201976776,73.33333587646484,151.0,1.0,WarmUp
238503.234375,710475.375,710936.25,710730.1875,710867.875,711191.25,710830.75,711328.5,-0.329345703125,0.733642578125,0.614501953125,0.3662109076976776,2.410888433456421,0.7019042372703552,73.33333587646484,152.0,1.0,WarmUp
238360.796875,710370.9375,710831.9375,710625.5625,710763.4375,711086.625,710726.4375,711223.9375,-0.3310546875,0.734130859375,0.611572265625,0.3662109076976776,2.441406011581421,0.8239745497703552,73.33333587646484,153.0,1.0,WarmUp
238179.484375,710178.25,710639.0,710432.875,710570.5625,710894.0625,710533.5,711030.9375,-0.33447265625,0.73388671875,0.612548828125,0.4577636420726776,2.380370855331421,0.9765624403953552,73.33333587646484,154.0,1.0,WarmUp
238096.6875,710011.25,710471.5,710265.8125,710403.8125,710727.0625,710366.75,710864.0,-0.333984375,0.73388671875,0.61181640625,0.3356933295726776,2.380370855331421,1.1596678495407104,73.33333587646484,155.0,1.0,WarmUp
238258.609375,710044.875,710504.75,710299.3125,710437.375,710760.75,710400.0625,710897.1875,-0.338134765625,0.732666015625,0.612060546875,0.2136230319738388,2.349853277206421,1.2207030057907104,73.33333587646484,156.0,1.0,WarmUp
238360.625,710119.9375,710580.125,710373.9375,710512.375,710835.5,710475.4375,710972.625,-0.341796875,0.731689453125,0.611328125,0.1525878757238388,2.258300542831421,1.4953612089157104,73.33333587646484,157.0,1.0,WarmUp
238239.921875,710031.625,710492.0625,710285.875,710424.125,710747.25,710387.375,710884.3125,-0.339111328125,0.7333984375,0.60888671875,0.0915527269244194,1.8310545682907104,1.6174315214157104,73.33333587646484,158.0,1.0,WarmUp
238066.203125,709852.0,710311.9375,710106.75,710244.75,710567.625,710207.25,710704.6875,-0.3427734375,0.734130859375,0.6123046875,0.1220703050494194,1.6174315214157104,1.7395018339157104,73.33333587646484,159.0,1.0,WarmUp
237982.25,709697.25,710156.8125,709952.0625,710090.125,710413.0625,710052.75,710550.0,-0.342041015625,0.733154296875,0.611572265625,0.0610351525247097,1.3122557401657104,1.6479490995407104,73.33333587646484,160.0,1.0,WarmUp
238144.96875,709739.5625,710199.25,709994.625,710132.6875,710455.25,710095.125,710592.5,-0.3408203125,0.732421875,0.610107421875,0.0,1.2207030057907104,1.6479490995407104,73.33333587646484,161.0,1.0,WarmUp
238232.328125,709818.8125,710278.5,710074.125,710212.25,710534.8125,710174.5625,710671.8125,-0.3388671875,0.733642578125,0.610595703125,-0.1220703050494194,0.9460448622703552,1.6784666776657104,73.33333587646484,162.0,1.0,WarmUp
238102.6875,709737.0625,710195.875,709991.9375,710129.8125,710452.625,710092.0625,710589.375,-0.339111328125,0.733154296875,0.611328125,-0.1831054538488388,0.6713866591453552,1.7089842557907104,73.33333587646484,163.0,1.0,WarmUp
237942.734375,709567.625,710026.375,709822.5,709960.4375,710283.5,709923.0625,710420.125,-0.339111328125,0.73583984375,0.61376953125,-0.2746581733226776,0.4577636420726776,1.7700194120407104,73.33333587646484,164.0,1.0,WarmUp
237871.296875,709419.875,709877.9375,709674.625,709812.3125,710135.3125,709775.3125,710272.375,-0.339599609375,0.732177734375,0.612060546875,-0.3356933295726776,0.2136230319738388,1.7700194120407104,73.33333587646484,165.0,1.0,WarmUp
238032.234375,709466.375,709924.3125,709721.375,709859.25,710181.9375,709821.9375,710318.875,-0.340576171875,0.732177734375,0.613037109375,-0.3967284858226776,-0.0610351525247097,1.8615721464157104,73.33333587646484,166.0,1.0,WarmUp
238127.984375,709557.875,710016.0625,709812.875,709950.875,710273.9375,709913.625,710410.375,-0.339599609375,0.73095703125,0.614013671875,-0.4882812201976776,-0.3051757514476776,1.8005369901657104,73.33333587646484,167.0,1.0,WarmUp
238008.453125,709486.3125,709944.375,709740.6875,709879.5625,710202.3125,709841.875,710338.8125,-0.3369140625,0.730712890625,0.611572265625,-0.4882812201976776,-0.5493163466453552,1.8005369901657104,73.33333587646484,168.0,1.0,WarmUp
237850.46875,709330.125,709788.1875,709584.6875,709723.375,710045.75,709685.875,710182.5625,-0.33642578125,0.734130859375,0.614013671875,-0.5493163466453552,-0.7934569716453552,1.8615721464157104,73.33333587646484,169.0,1.0,WarmUp
237785.828125,709192.625,709650.125,709447.375,709585.75,709908.0,709548.5625,710045.125,-0.3330078125,0.736083984375,0.616455078125,-0.7934569716453552,-0.8850097060203552,1.8920897245407104,73.33333587646484,170.0,1.0,WarmUp
237949.890625,709239.6875,709697.3125,709494.625,709632.8125,709955.25,709595.3125,710092.3125,-0.3310546875,0.73583984375,0.615234375,-0.9155272841453552,-1.0986326932907104,1.9226073026657104,73.33333587646484,171.0,1.0,WarmUp
238051.28125,709336.75,709794.1875,709591.5625,709729.8125,710052.5625,709692.625,710189.4375,-0.330078125,0.736328125,0.614501953125,-0.9460448622703552,-1.2512205839157104,2.075195074081421,73.33333587646484,172.0,1.0,WarmUp
237928.34375,709271.0625,709728.25,709525.6875,709664.1875,709986.5625,709627.0625,710123.25,-0.330322265625,0.735107421875,0.612060546875,-0.9460448622703552,-1.3732908964157104,1.8920897245407104,73.33333587646484,173.0,1.0,WarmUp
237771.875,709123.0,709579.6875,709377.375,709516.125,709838.0625,709478.75,709975.125,-0.32958984375,0.736328125,0.61328125,-1.0986326932907104,-1.5869139432907104,1.9531248807907104,73.33333587646484,174.0,1.0,WarmUp
237693.734375,708990.5,709446.375,709244.875,709383.625,709705.3125,709345.875,709843.0,-0.329345703125,0.735107421875,0.612548828125,-1.2207030057907104,-1.7700194120407104,1.9226073026657104,73.33333587646484,175.0,1.0,WarmUp
237863.34375,709052.875,709509.125,709307.9375,709446.125,709768.3125,709409.0,709905.75,-0.330078125,0.73193359375,0.6123046875,-1.3427733182907104,-1.9226073026657104,1.8615721464157104,73.33333587646484,176.0,1.0,WarmUp
237949.0,709151.9375,709608.1875,709406.3125,709544.4375,709866.875,709507.625,710004.1875,-0.329345703125,0.730224609375,0.6123046875,-1.4038084745407104,-2.014159917831421,1.8615721464157104,73.33333587646484,177.0,1.0,WarmUp
237842.0625,709092.9375,709549.5625,709347.5,709485.8125,709807.8125,709448.8125,709945.0625,-0.3310546875,0.730712890625,0.614013671875,-1.5258787870407104,-2.166747808456421,1.9836424589157104,73.33333587646484,178.0,1.0,WarmUp
237691.859375,708954.0,709410.0625,709208.5625,709347.0625,709669.1875,709310.0,709806.3125,-0.3291015625,0.729736328125,0.614990234375,-1.4953612089157104,-2.441406011581421,1.8310545682907104,73.33333587646484,179.0,1.0,WarmUp
237618.359375,708828.9375,709284.25,709083.1875,709221.875,709543.9375,709184.75,709681.0,-0.32861328125,0.72900390625,0.61474609375,-1.4953612089157104,-2.655029058456421,1.8310545682907104,73.33333587646484,180.0,1.0,WarmUp
237804.59375,708892.9375,709347.9375,709147.6875,709285.8125,709608.125,709249.0625,709745.0,-0.330322265625,0.728759765625,0.612548828125,-1.4038084745407104,-2.868652105331421,1.8920897245407104,73.33333587646484,181.0,1.0,WarmUp
237927.265625,709007.1875,709462.625,709261.8125,709400.25,709722.4375,709363.3125,709859.3125,-0.329345703125,0.72705078125,0.6142578125,-1.3427733182907104,-3.082275152206421,1.8920897245407104,73.33333587646484,182.0,1.0,WarmUp
237810.234375,708956.125,709411.5625,709211.0625,709349.4375,709671.25,709312.375,709808.625,-0.3271484375,0.72802734375,0.614990234375,-1.2512205839157104,-3.234863042831421,1.8920897245407104,73.33333587646484,183.0,1.0,WarmUp
237648.140625,708810.4375,709263.25,709064.6875,709203.5625,709525.25,709166.625,709662.9375,-0.326416015625,0.7255859375,0.61474609375,-1.1596678495407104,-3.417968511581421,1.8310545682907104,73.33333587646484,184.0,1.0,WarmUp
237574.5625,708683.25,709130.25,708935.5625,709076.6875,709398.0,709039.6875,709535.75,-0.3271484375,0.726806640625,0.614990234375,-1.2207030057907104,-3.692626714706421,1.6174315214157104,73.33333587646484,185.0,1.0,WarmUp
237753.453125,708748.625,709193.5,709000.25,709141.375,709463.0625,709104.8125,709600.875,-0.326416015625,0.72802734375,0.615234375,-1.2817381620407104,-3.845214605331421,1.6479490995407104,73.33333587646484,186.0,1.0,WarmUp
237881.765625,708868.0,709315.5625,709120.6875,709260.75,709582.6875,709224.125,709720.0625,-0.32666015625,0.727294921875,0.615966796875,-1.3122557401657104,-4.058837413787842,1.6784666776657104,73.33333587646484,187.0,1.0,WarmUp
237772.765625,708823.9375,709271.75,709076.75,709217.125,709539.4375,709180.3125,709675.9375,-0.325439453125,0.72802734375,0.614990234375,-1.2817381620407104,-4.241942882537842,1.5258787870407104,73.33333587646484,188.0,1.0,WarmUp
237618.453125,708686.5,709129.9375,708938.0,709079.4375,709401.875,709042.4375,709538.4375,-0.32373046875,0.72998046875,0.614990234375,-1.3427733182907104,-4.394530773162842,1.4648436307907104,73.33333587646484,189.0,1.0,WarmUp
237558.46875,708564.75,709001.75,708813.875,708957.6875,709279.8125,708920.6875,709416.5,-0.321533203125,0.7353515625,0.61572265625,-1.1901854276657104,-4.638671398162842,1.4953612089157104,73.33333587646484,190.0,1.0,WarmUp
237743.890625,708627.9375,709062.75,708875.9375,709020.5,709342.5625,708983.6875,709479.4375,-0.320556640625,0.73583984375,0.617431640625,-1.1901854276657104,-4.791259288787842,1.6479490995407104,73.33333587646484,191.0,1.0,WarmUp
237867.359375,708743.8125,709181.1875,708992.6875,709136.5,709458.5,709099.5,709595.4375,-0.318359375,0.73486328125,0.616455078125,-1.1901854276657104,-5.004882335662842,1.7700194120407104,73.33333587646484,192.0,1.0,WarmUp
237761.234375,708704.8125,709142.3125,708954.1875,709097.875,709419.75,709060.9375,709556.875,-0.31787109375,0.73291015625,0.61572265625,-1.2817381620407104,-5.126952648162842,1.8310545682907104,73.33333587646484,193.0,1.0,WarmUp
237610.953125,708571.1875,709004.0,708818.9375,708964.125,709286.0,708927.1875,709423.3125,-0.315185546875,0.733642578125,0.61572265625,-1.3122557401657104,-5.279540538787842,1.8615721464157104,73.33333587646484,194.0,1.0,WarmUp
237534.140625,708450.125,708876.125,708695.625,708842.875,709165.125,708805.6875,709301.8125,-0.314208984375,0.736083984375,0.6171875,-1.2207030057907104,-5.279540538787842,1.8920897245407104,73.33333587646484,195.0,1.0,WarmUp
237698.921875,708512.875,708937.125,708757.875,708905.8125,709227.6875,708868.25,709364.5,-0.3154296875,0.73681640625,0.618896484375,-1.3122557401657104,-5.340575695037842,1.9226073026657104,73.33333587646484,196.0,1.0,WarmUp
237818.015625,708637.125,709064.125,708882.8125,709029.75,709351.9375,708992.5625,709489.0,-0.313232421875,0.73681640625,0.61865234375,-1.4038084745407104,-5.310058116912842,1.8920897245407104,73.33333587646484,197.0,1.0,WarmUp
237719.3125,708607.4375,709034.625,708853.3125,709000.25,709322.25,708962.875,709459.25,-0.30810546875,0.7353515625,0.618408203125,-1.5258787870407104,-5.279540538787842,1.9531248807907104,73.33333587646484,198.0,1.0,WarmUp
237560.078125,708472.8125,708894.8125,708717.375,708865.375,709187.6875,708828.1875,709324.4375,-0.306396484375,0.73583984375,0.617919921875,-1.4953612089157104,-5.279540538787842,2.014159917831421,73.33333587646484,199.0,1.0,WarmUp
237479.25,708351.5,708766.1875,708593.4375,708744.0625,709066.3125,708706.6875,709202.9375,-0.307373046875,0.736572265625,0.621337890625,-1.5563963651657104,-5.218505382537842,2.014159917831421,73.33333587646484,200.0,1.0,WarmUp
237646.984375,708414.375,708826.875,708655.5625,708807.1875,709129.125,708769.5,709265.75,-0.3056640625,0.736572265625,0.6181640625,-1.6174315214157104,-5.187987804412842,2.136230230331421,73.33333587646484,201.0,1.0,WarmUp
237764.1875,708537.0,708953.0,708779.6875,708930.375,709252.0,708892.0625,709388.625,-0.303955078125,0.73388671875,0.61767578125,-1.7089842557907104,-5.035399913787842,2.075195074081421,73.33333587646484,202.0,1.0,WarmUp
237656.09375,708503.75,708919.25,708745.875,708896.6875,709218.5625,708858.5,709355.0625,-0.303955078125,0.734130859375,0.61474609375,-1.7700194120407104,-4.882812023162842,2.166747808456421,73.33333587646484,203.0,1.0,WarmUp
237496.765625,708371.3125,708781.375,708611.5,708763.9375,709085.6875,708726.0,709222.5,-0.302978515625,0.7333984375,0.616455078125,-1.7395018339157104,-4.760741710662842,2.075195074081421,73.33333587646484,204.0,1.0,WarmUp
237402.1875,708251.0,708653.6875,708489.1875,708643.75,708965.375,708605.875,709102.125,-0.3017578125,0.733154296875,0.61376953125,-1.8615721464157104,-4.577636241912842,2.044677495956421,73.33333587646484,205.0,1.0,WarmUp
237575.0,708321.4375,708721.4375,708558.8125,708714.0625,709036.0625,708676.8125,709172.5,-0.30078125,0.731689453125,0.616943359375,-1.8005369901657104,-4.394530773162842,2.044677495956421,73.33333587646484,206.0,1.0,WarmUp
237703.390625,708452.25,708855.8125,708691.0625,708845.4375,709167.0625,708808.0625,709303.6875,-0.296630859375,0.731689453125,0.613525390625,-1.7700194120407104,-4.241942882537842,2.044677495956421,73.33333587646484,207.0,1.0,WarmUp
237582.421875,708424.375,708828.5,708663.8125,708817.5625,709139.5,708780.375,709275.875,-0.295166015625,0.732177734375,0.61669921875,-1.5869139432907104,-4.028319835662842,1.9836424589157104,73.33333587646484,208.0,1.0,WarmUp
237414.34375,708297.3125,708696.0,708535.3125,708690.5,709012.1875,708653.0625,709148.75,-0.294189453125,0.732177734375,0.6142578125,-1.5869139432907104,-3.784179449081421,1.9836424589157104,73.33333587646484,209.0,1.0,WarmUp
237335.390625,708180.75,708570.8125,708416.125,708573.875,708895.4375,708536.1875,709031.625,-0.2939453125,0.732421875,0.6171875,-1.6784666776657104,-3.509521245956421,1.9531248807907104,73.33333587646484,210.0,1.0,WarmUp
237507.234375,708249.3125,708636.875,708483.375,708642.3125,708963.5625,708604.6875,709100.1875,-0.29296875,0.732666015625,0.61962890625,-1.6479490995407104,-3.265380620956421,1.8920897245407104,73.33333587646484,211.0,1.0,WarmUp
237643.84375,708385.125,708776.375,708620.1875,708777.6875,709099.5625,708740.4375,709236.375,-0.293701171875,0.733154296875,0.617919921875,-1.6174315214157104,-2.990722417831421,1.8310545682907104,73.33333587646484,212.0,1.0,WarmUp
237527.171875,708358.3125,708750.1875,708593.8125,708750.875,709072.75,708713.75,709209.4375,-0.290283203125,0.7333984375,0.618408203125,-1.6784666776657104,-2.716064214706421,1.8310545682907104,73.33333587646484,213.0,1.0,WarmUp
237361.953125,708231.0625,708618.3125,708465.5,708624.1875,708945.875,708586.25,709081.9375,-0.291259765625,0.732666015625,0.619140625,-1.6784666776657104,-2.380370855331421,1.8615721464157104,73.33333587646484,214.0,1.0,WarmUp
237288.640625,708120.3125,708498.5,708352.1875,708512.875,708835.0,708475.125,708970.875,-0.293212890625,0.733154296875,0.6201171875,-1.7089842557907104,-2.166747808456421,1.8005369901657104,73.33333587646484,215.0,1.0,WarmUp
237473.703125,708199.3125,708574.625,708430.375,708591.375,708913.4375,708554.4375,709049.5625,-0.294189453125,0.732177734375,0.620361328125,-1.7395018339157104,-1.8920897245407104,1.7700194120407104,73.33333587646484,216.0,1.0,WarmUp
237607.015625,708335.125,708715.1875,708567.125,708727.5625,709049.5,708690.25,709185.6875,-0.2939453125,0.73291015625,0.61962890625,-1.7395018339157104,-1.7395018339157104,1.7395018339157104,73.33333587646484,217.0,1.0,WarmUp
237498.375,708304.8125,708685.4375,708536.8125,708697.4375,709019.25,708659.75,709155.4375,-0.295166015625,0.732177734375,0.616943359375,-1.7089842557907104,-1.7395018339157104,1.6174315214157104,73.33333587646484,218.0,1.0,WarmUp
237339.234375,708180.8125,708556.25,708411.6875,708573.75,708895.4375,708536.0,709031.625,-0.296630859375,0.730712890625,0.618408203125,-1.7700194120407104,-1.4648436307907104,1.6174315214157104,73.33333587646484,219.0,1.0,WarmUp
237247.328125,708065.5,708431.125,708294.0625,708458.3125,708779.9375,708420.5,708916.1875,-0.294921875,0.730224609375,0.618896484375,-1.8615721464157104,-1.2512205839157104,1.6174315214157104,73.33333587646484,220.0,1.0,WarmUp
237413.625,708131.375,708494.375,708359.5625,708524.5,708846.1875,708486.25,708982.4375,-0.294921875,0.7314453125,0.621826171875,-1.7395018339157104,-1.1596678495407104,1.5563963651657104,73.33333587646484,221.0,1.0,WarmUp
237549.796875,708268.3125,708636.625,708497.6875,708661.125,708983.125,708623.1875,709119.25,-0.29736328125,0.73291015625,0.61865234375,-1.7089842557907104,-1.0070799589157104,1.5258787870407104,73.33333587646484,222.0,1.0,WarmUp
237453.234375,708255.125,708624.0,708484.5,708647.625,708969.8125,708609.9375,709105.75,-0.2978515625,0.733154296875,0.6201171875,-1.7700194120407104,-0.8850097060203552,1.4038084745407104,73.33333587646484,223.0,1.0,WarmUp
237290.515625,708131.9375,708494.25,708359.8125,708524.875,708846.5625,708486.4375,708982.5,-0.29833984375,0.731689453125,0.623046875,-1.8310545682907104,-0.7629393935203552,1.3732908964157104,73.33333587646484,224.0,1.0,WarmUp
237193.859375,708010.125,708361.3125,708235.375,708402.625,708724.125,708364.5625,708860.375,-0.298095703125,0.73095703125,0.620849609375,-1.8005369901657104,-0.6713866591453552,1.4343260526657104,73.33333587646484,225.0,1.0,WarmUp
237361.59375,708073.0,708420.8125,708297.375,708465.5,708787.0625,708427.5625,708923.4375,-0.2978515625,0.7333984375,0.618896484375,-1.8310545682907104,-0.6713866591453552,1.3732908964157104,73.33333587646484,226.0,1.0,WarmUp
237507.328125,708213.0625,708566.8125,708438.8125,708605.5,708927.375,708567.4375,709063.4375,-0.2998046875,0.734130859375,0.619873046875,-1.8615721464157104,-0.4272460639476776,1.4648436307907104,73.33333587646484,227.0,1.0,WarmUp
237399.046875,708198.0,708553.75,708424.375,708590.625,708912.4375,708552.8125,709048.4375,-0.2998046875,0.73388671875,0.621826171875,-1.9226073026657104,-0.4882812201976776,1.5869139432907104,73.33333587646484,228.0,1.0,WarmUp
237232.046875,708078.6875,708427.25,708303.8125,708471.9375,708793.3125,708434.0,708929.125,-0.302734375,0.73388671875,0.621826171875,-1.8920897245407104,-0.3967284858226776,1.5869139432907104,73.33333587646484,229.0,1.0,WarmUp
237143.703125,707962.0625,708296.6875,708184.75,708355.0625,708676.6875,708317.0625,708812.375,-0.30419921875,0.734130859375,0.621337890625,-1.9531248807907104,-0.2746581733226776,1.5563963651657104,73.33333587646484,230.0,1.0,WarmUp
237320.375,708031.4375,708361.9375,708252.875,708423.8125,708745.6875,708386.375,708881.4375,-0.30517578125,0.734375,0.61962890625,-2.136230230331421,-0.3356933295726776,1.5258787870407104,73.33333587646484,231.0,1.0,WarmUp
237460.921875,708170.6875,708510.375,708393.6875,708563.5625,708885.25,708525.9375,709020.6875,-0.309326171875,0.735107421875,0.622314453125,-2.258300542831421,-0.3967284858226776,1.5563963651657104,73.33333587646484,232.0,1.0,WarmUp
237362.21875,708161.6875,708503.75,708385.1875,708554.6875,708876.3125,708516.875,709012.0,-0.3095703125,0.732177734375,0.625,-2.288818120956421,-0.6408690810203552,1.4038084745407104,73.33333587646484,233.0,1.0,WarmUp
237195.734375,708040.625,708372.25,708263.25,708433.75,708755.25,708395.5,708891.0625,-0.3095703125,0.7294921875,0.625,-2.258300542831421,-0.7629393935203552,1.2207030057907104,73.33333587646484,234.0,1.0,WarmUp
237111.15625,707927.375,708187.9375,708146.9375,708320.3125,708641.875,708282.375,708777.625,-0.3115234375,0.72998046875,0.624755859375,-2.319335699081421,-0.9155272841453552,1.2817381620407104,73.33333587646484,235.0,1.0,WarmUp
237295.078125,708000.8125,708226.25,708219.0,708393.6875,708715.375,708355.625,708851.1875,-0.308349609375,0.731689453125,0.622802734375,-2.441406011581421,-1.1291502714157104,1.3427733182907104,73.33333587646484,236.0,1.0,WarmUp
237436.421875,708142.25,708458.25,708363.125,708535.6875,708856.9375,708497.0625,708992.6875,-0.307373046875,0.73193359375,0.62158203125,-2.471923589706421,-1.2817381620407104,1.2817381620407104,73.33333587646484,237.0,1.0,WarmUp
237345.046875,708132.25,708456.25,708353.625,708525.375,708847.1875,708487.3125,708982.5,-0.304931640625,0.7314453125,0.62060546875,-2.593993902206421,-1.4038084745407104,1.4038084745407104,73.33333587646484,238.0,1.0,WarmUp
237178.65625,708013.8125,708081.5,708231.25,708407.1875,708728.8125,708369.1875,708864.0625,-0.308837890625,0.72802734375,0.623046875,-2.593993902206421,-1.4343260526657104,1.4953612089157104,73.33333587646484,239.0,1.0,WarmUp
237076.296875,707891.6875,705882.0625,708093.1875,708284.6875,708606.3125,708245.625,708740.875,-0.3125,0.72802734375,0.6220703125,-2.655029058456421,-1.5869139432907104,1.5869139432907104,73.33333587646484,240.0,1.0,WarmUp
237247.859375,707956.25,705053.0,708153.1875,708349.0625,708670.875,708310.125,708805.25,-0.315673828125,0.725341796875,0.619140625,-2.563476324081421,-1.7089842557907104,1.4343260526657104,73.33333587646484,241.0,1.0,WarmUp
237396.640625,708103.0,707159.0,708307.6875,708496.0625,708817.5625,708457.0625,708952.3125,-0.3173828125,0.72509765625,0.619384765625,-2.471923589706421,-2.014159917831421,1.4343260526657104,73.33333587646484,242.0,1.0,WarmUp
237303.390625,708093.8125,707830.625,708302.125,708487.375,708808.5625,708448.4375,708943.5625,-0.31787109375,0.72509765625,0.62060546875,-2.441406011581421,-2.288818120956421,1.3427733182907104,73.33333587646484,243.0,1.0,WarmUp
237139.953125,707972.9375,705760.0,708171.5,708366.3125,708687.6875,708326.875,708822.0625,-0.319580078125,0.7236328125,0.62158203125,-2.258300542831421,-2.624511480331421,1.3732908964157104,73.33333587646484,244.0,1.0,WarmUp
237041.15625,707855.8125,702052.6875,708049.3125,708248.875,708570.1875,708209.125,708704.625,-0.3193359375,0.7255859375,0.622314453125,-2.075195074081421,-2.990722417831421,1.3427733182907104,73.33333587646484,245.0,1.0,WarmUp
237209.59375,707912.9375,701064.1875,708106.0,708306.5,708628.125,708266.8125,708762.3125,-0.31689453125,0.726318359375,0.621337890625,-1.9531248807907104,-3.265380620956421,1.3122557401657104,73.33333587646484,246.0,1.0,WarmUp
237364.453125,708060.0,703230.375,708254.6875,708453.125,708775.125,708413.375,708909.0625,-0.319580078125,0.726806640625,0.625,-1.8310545682907104,-3.601073980331421,1.0681151151657104,73.33333587646484,247.0,1.0,WarmUp
237270.3125,708054.1875,703918.1875,708249.1875,708447.0,708768.8125,708407.4375,708903.125,-0.3203125,0.728271484375,0.62548828125,-1.8310545682907104,-3.906249761581421,0.9765624403953552,73.33333587646484,248.0,1.0,WarmUp
237102.125,707933.0625,701720.375,708126.0,708325.75,708647.5,708286.5,708782.0,-0.3193359375,0.729736328125,0.626708984375,-1.8005369901657104,-4.211425304412842,1.0375975370407104,73.33333587646484,249.0,1.0,WarmUp
236999.578125,707810.125,698241.625,708000.5625,708203.25,708524.6875,708163.9375,708659.0625,-0.32080078125,0.730712890625,0.626708984375,-1.8005369901657104,-4.547118663787842,0.9155272841453552,73.33333587646484,250.0,1.0,WarmUp
237187.78125,707880.3125,697470.5,708069.875,708273.6875,708595.125,708234.1875,708729.25,-0.32177734375,0.731201171875,0.623291015625,-1.8005369901657104,-4.882812023162842,0.7934569716453552,73.33333587646484,251.0,1.0,WarmUp
237335.125,708022.8125,699521.5625,708213.875,708416.3125,708737.9375,708376.625,708872.0,-0.322265625,0.733642578125,0.624755859375,-1.8615721464157104,-5.187987804412842,0.9460448622703552,73.33333587646484,252.0,1.0,WarmUp
237239.1875,708012.9375,700008.0625,708204.6875,708406.75,708728.0,708366.75,708862.25,-0.31787109375,0.735107421875,0.626953125,-2.014159917831421,-5.584716320037842,0.9765624403953552,73.33333587646484,253.0,1.0,WarmUp
237090.515625,707903.5625,698026.75,708093.75,708296.75,708617.9375,708256.875,708752.3125,-0.317626953125,0.734375,0.628662109375,-2.075195074081421,-5.828856945037842,0.9765624403953552,73.33333587646484,254.0,1.0,WarmUp
236986.890625,707780.8125,694700.1875,707968.5,708173.75,708495.1875,708134.25,708629.375,-0.3134765625,0.734619140625,0.6279296875,-2.349853277206421,-6.134032726287842,1.0375975370407104,73.33333587646484,255.0,1.0,WarmUp
237145.140625,707839.1875,693796.3125,708026.6875,708232.5,708554.0,708192.8125,708688.0,-0.309814453125,0.735107421875,0.625732421875,-2.532958745956421,-6.378173351287842,0.9765624403953552,73.33333587646484,256.0,1.0,WarmUp
237305.796875,707991.8125,695865.375,708180.375,708385.0,708706.625,708345.5,708841.0625,-0.30810546875,0.735595703125,0.6240234375,-2.441406011581421,-6.591796398162842,0.9765624403953552,73.33333587646484,257.0,1.0,WarmUp
237223.8125,707995.8125,696635.4375,708184.8125,708389.0625,708710.3125,708349.625,708845.1875,-0.306640625,0.733642578125,0.62646484375,-2.655029058456421,-6.744384288787842,1.0986326932907104,73.33333587646484,258.0,1.0,WarmUp
237070.484375,707882.75,694734.375,708070.375,708275.125,708596.75,708236.25,708731.3125,-0.30126953125,0.733154296875,0.6259765625,-2.746581792831421,-6.713866710662842,1.1596678495407104,73.33333587646484,259.0,1.0,WarmUp
236964.171875,707760.75,691444.0,707947.0,708153.1875,708475.125,708114.125,708609.3125,-0.29638671875,0.735595703125,0.626708984375,-2.929687261581421,-6.683349132537842,1.3732908964157104,73.33333587646484,260.0,1.0,WarmUp
237116.796875,707816.9375,690540.5625,708002.8125,708209.4375,708531.3125,708170.0625,708665.5625,-0.294189453125,0.73583984375,0.627685546875,-3.112792730331421,-6.683349132537842,1.4038084745407104,73.33333587646484,261.0,1.0,WarmUp
237278.984375,707969.8125,692639.9375,708156.75,708362.9375,708684.375,708323.4375,708818.625,-0.295166015625,0.7353515625,0.626220703125,-3.173827886581421,-6.561278820037842,1.5258787870407104,73.33333587646484,262.0,1.0,WarmUp
237200.296875,707974.625,693475.9375,708161.9375,708367.375,708689.1875,708328.4375,708823.5625,-0.29296875,0.732421875,0.6259765625,-3.326415777206421,-6.561278820037842,1.6174315214157104,73.33333587646484,263.0,1.0,WarmUp
237038.296875,707860.125,691626.375,708046.5,708252.625,708574.375,708213.875,708708.6875,-0.293212890625,0.73046875,0.62646484375,-3.265380620956421,-6.439208507537842,1.7089842557907104,73.33333587646484,264.0,1.0,WarmUp
236930.5625,707739.6875,688363.6875,707925.375,708132.1875,708454.3125,708093.125,708588.0,-0.289306640625,0.7294921875,0.62451171875,-3.326415777206421,-6.225585460662842,1.7700194120407104,73.33333587646484,265.0,1.0,WarmUp
237091.40625,707799.0625,687465.5625,707984.5625,708191.1875,708513.5,708152.5625,708647.25,-0.28759765625,0.728759765625,0.622314453125,-3.509521245956421,-6.042479991912842,1.8005369901657104,73.33333587646484,266.0,1.0,WarmUp
237243.21875,707948.25,689595.4375,708133.9375,708340.75,708662.875,708301.3125,708796.8125,-0.284423828125,0.726318359375,0.625,-3.631591558456421,-5.767821788787842,1.8310545682907104,73.33333587646484,267.0,1.0,WarmUp
237144.421875,707944.6875,690460.625,708130.5625,708337.5625,708659.5,708297.9375,708793.625,-0.28271484375,0.7265625,0.623046875,-3.692626714706421,-5.493163585662842,1.8005369901657104,73.33333587646484,268.0,1.0,WarmUp
236966.671875,707832.1875,688650.1875,708018.0,708225.0625,708546.6875,708185.4375,708680.9375,-0.280029296875,0.725341796875,0.625732421875,-3.723144292831421,-5.065917491912842,1.7700194120407104,73.33333587646484,269.0,1.0,WarmUp
236877.1875,707715.375,685418.125,707900.25,708108.1875,708429.75,708068.625,708563.5625,-0.277099609375,0.725341796875,0.626708984375,-3.753661870956421,-4.760741710662842,1.7395018339157104,73.33333587646484,270.0,1.0,WarmUp
237058.40625,707782.125,684646.0625,707966.875,708175.1875,708496.875,708135.8125,708630.625,-0.2763671875,0.724365234375,0.626953125,-3.784179449081421,-4.333495616912842,1.6784666776657104,73.33333587646484,271.0,1.0,WarmUp
237210.765625,707935.0625,686813.4375,708119.9375,708327.5,708649.6875,708288.4375,708783.75,-0.275390625,0.7255859375,0.62890625,-3.875732183456421,-3.906249761581421,1.6784666776657104,73.33333587646484,272.0,1.0,WarmUp
237124.578125,707932.875,687570.8125,708117.875,708325.3125,708647.5,708286.25,708781.375,-0.27587890625,0.723876953125,0.6279296875,-3.875732183456421,-3.601073980331421,1.5563963651657104,73.33333587646484,273.0,1.0,WarmUp
236969.71875,707819.0,685777.3125,708003.25,708211.3125,708533.1875,708172.5,708667.125,-0.27685546875,0.7255859375,0.626953125,-3.875732183456421,-3.204345464706421,1.4953612089157104,73.33333587646484,274.0,1.0,WarmUp
236864.484375,707695.6875,682398.0625,707877.625,708088.375,708410.25,708049.1875,708543.875,-0.276123046875,0.7236328125,0.6279296875,-3.875732183456421,-2.746581792831421,1.4038084745407104,73.33333587646484,275.0,1.0,WarmUp
237022.296875,707750.875,681504.125,707932.25,708143.875,708465.125,708104.1875,708599.4375,-0.27734375,0.723388671875,0.631103515625,-3.784179449081421,-2.502441167831421,1.2207030057907104,73.33333587646484,276.0,1.0,WarmUp
237177.40625,707906.0625,684101.8125,708089.0625,708299.1875,708620.8125,708259.6875,708754.4375,-0.276123046875,0.72314453125,0.63037109375,-3.723144292831421,-2.044677495956421,1.0681151151657104,73.33333587646484,277.0,1.0,WarmUp
237103.375,707917.0,685163.25,708101.875,708309.625,708632.125,708270.875,708765.4375,-0.27685546875,0.72412109375,0.63037109375,-3.753661870956421,-1.6784666776657104,0.9765624403953552,73.33333587646484,278.0,1.0,WarmUp
236938.25,707800.5625,683327.5625,707983.875,708193.0625,708515.375,708154.0625,708648.9375,-0.274658203125,0.72509765625,0.63037109375,-3.784179449081421,-1.2817381620407104,0.9765624403953552,73.33333587646484,279.0,1.0,WarmUp
236830.25,707676.75,679914.25,707859.75,708069.6875,708391.25,708030.4375,708525.0,-0.275390625,0.722412109375,0.632080078125,-3.875732183456421,-0.9460448622703552,0.8544921278953552,73.33333587646484,280.0,1.0,WarmUp
236983.390625,707725.5625,679124.5,707909.4375,708118.4375,708439.9375,708079.1875,708573.9375,-0.277099609375,0.7236328125,0.629150390625,-3.753661870956421,-0.6103515028953552,0.8239745497703552,73.33333587646484,281.0,1.0,WarmUp
237161.9375,707883.0625,681707.125,708065.0625,708276.125,708597.5625,708236.5,708731.0,-0.2783203125,0.723388671875,0.630615234375,-3.692626714706421,-0.2136230319738388,0.7019042372703552,73.33333587646484,282.0,1.0,WarmUp
237089.609375,707898.625,683026.6875,708080.5625,708291.125,708613.25,708251.6875,708746.5,-0.2802734375,0.7265625,0.634765625,-3.631591558456421,0.0915527269244194,0.6408690810203552,73.33333587646484,283.0,1.0,WarmUp
236932.53125,707784.375,681097.125,707964.5625,708177.3125,708499.1875,708137.75,708632.4375,-0.282958984375,0.728271484375,0.632568359375,-3.540038824081421,0.4577636420726776,0.7019042372703552,73.33333587646484,284.0,1.0,WarmUp
236812.90625,707655.625,677881.125,707839.4375,708048.375,708369.8125,708009.0625,708503.9375,-0.285888671875,0.72705078125,0.63232421875,-3.601073980331421,0.6103515028953552,0.6713866591453552,73.33333587646484,285.0,1.0,WarmUp
236970.796875,707706.4375,677118.25,707890.3125,708099.125,708420.625,708059.875,708555.0625,-0.289794921875,0.72607421875,0.630615234375,-3.509521245956421,0.7629393935203552,0.6103515028953552,73.33333587646484,286.0,1.0,WarmUp
237160.6875,707865.75,679537.25,708049.8125,708258.625,708580.125,708219.375,708714.5625,-0.291748046875,0.726318359375,0.63623046875,-3.570556402206421,0.8544921278953552,0.6713866591453552,73.33333587646484,287.0,1.0,WarmUp
237073.078125,707875.75,680808.75,708060.1875,708268.8125,708590.625,708229.4375,708724.5,-0.2939453125,0.727294921875,0.63623046875,-3.509521245956421,0.9155272841453552,0.7019042372703552,73.33333587646484,288.0,1.0,WarmUp
236898.1875,707757.3125,679294.875,707941.5625,708150.0625,708471.8125,708110.5625,708605.4375,-0.298828125,0.72607421875,0.633544921875,-3.448486089706421,1.0070799589157104,0.6408690810203552,73.33333587646484,289.0,1.0,WarmUp
236794.390625,707632.6875,676255.375,707816.5,708024.875,708346.6875,707985.8125,708480.4375,-0.30029296875,0.72314453125,0.6376953125,-3.417968511581421,1.0986326932907104,0.6408690810203552,73.33333587646484,290.0,1.0,WarmUp
236964.71875,707690.6875,675531.625,707874.9375,708083.375,708404.875,708043.9375,708538.625,-0.298095703125,0.723876953125,0.6357421875,-3.356933355331421,0.9460448622703552,0.6713866591453552,73.33333587646484,291.0,1.0,WarmUp
237122.421875,707847.875,677903.3125,708032.25,708241.0,708562.5,708201.1875,708696.3125,-0.301025390625,0.724365234375,0.640625,-3.265380620956421,1.0070799589157104,0.7019042372703552,73.33333587646484,292.0,1.0,WarmUp
237033.46875,707847.75,678954.5625,708032.25,708241.0625,708562.75,708201.375,708696.6875,-0.3095703125,0.7255859375,0.643310546875,-3.173827886581421,1.0375975370407104,0.6103515028953552,73.33333587646484,293.0,1.0,WarmUp
236881.921875,707737.25,677411.5,707921.625,708130.1875,708451.875,708090.9375,708585.9375,-0.311279296875,0.7255859375,0.642822265625,-3.051757574081421,0.8544921278953552,0.5187987685203552,73.33333587646484,294.0,1.0,WarmUp
236770.34375,707609.5,674306.3125,707793.875,708002.25,708323.75,707962.8125,708457.6875,-0.310546875,0.724365234375,0.638916015625,-3.143310308456421,0.6103515028953552,0.4882812201976776,73.33333587646484,295.0,1.0,WarmUp
236927.078125,707655.875,673362.875,707840.25,708048.875,708370.625,708009.5,708504.1875,-0.307861328125,0.72119140625,0.64013671875,-3.265380620956421,0.4272460639476776,0.4882812201976776,73.33333587646484,296.0,1.0,WarmUp
237109.90625,707816.9375,675680.125,708001.1875,708210.0625,708531.9375,708170.4375,708665.75,-0.3017578125,0.719482421875,0.640869140625,-3.112792730331421,0.3356933295726776,0.5493163466453552,73.33333587646484,297.0,1.0,WarmUp
237035.703125,707836.9375,676960.875,708020.875,708230.0,708551.5,708190.125,708685.25,-0.3037109375,0.721435546875,0.64404296875,-2.868652105331421,0.4272460639476776,0.5187987685203552,73.33333587646484,298.0,1.0,WarmUp
236867.265625,707723.6875,675429.6875,707907.4375,708116.625,708437.9375,708077.125,708572.0625,-0.310791015625,0.72705078125,0.643310546875,-2.593993902206421,0.3967284858226776,0.5493163466453552,73.33333587646484,299.0,1.0,WarmUp
236744.234375,707592.25,672292.875,707776.6875,707985.25,708306.625,707946.0,708441.1875,-0.313720703125,0.730712890625,0.642822265625,-2.532958745956421,0.03051757626235485,0.4272460639476776,73.33333587646484,300.0,1.0,WarmUp
236891.125,707635.5,671291.0625,707820.4375,708028.75,708350.3125,707988.9375,708484.375,-0.31103515625,0.72412109375,0.6435546875,-2.624511480331421,-0.3356933295726776,0.4577636420726776,73.33333587646484,301.0,1.0,WarmUp
237080.3125,707798.625,673596.9375,707982.9375,708191.8125,708513.4375,708152.375,708647.25,-0.307861328125,0.718505859375,0.644287109375,-2.655029058456421,-0.5493163466453552,0.4272460639476776,73.33333587646484,302.0,1.0,WarmUp
237020.140625,707819.875,674910.75,708004.75,708212.9375,708534.9375,708174.0,708668.625,-0.3046875,0.71826171875,0.6435546875,-2.532958745956421,-0.5493163466453552,0.4577636420726776,73.33333587646484,303.0,1.0,WarmUp
236856.703125,707705.375,673397.625,707890.125,708098.375,708420.0625,708058.9375,708554.1875,-0.3076171875,0.72119140625,0.640380859375,-2.197265386581421,-0.6408690810203552,0.4577636420726776,73.33333587646484,304.0,1.0,WarmUp
236728.59375,707574.8125,670270.5625,707759.8125,707967.6875,708289.1875,707928.5,708423.625,-0.31005859375,0.72021484375,0.63916015625,-2.075195074081421,-0.7629393935203552,0.5187987685203552,73.33333587646484,305.0,1.0,WarmUp
236873.34375,707617.9375,669245.9375,707802.5625,708010.375,708332.0625,707971.3125,708466.125,-0.30810546875,0.714599609375,0.641357421875,-1.8310545682907104,-0.9155272841453552,0.5798339247703552,73.33333587646484,306.0,1.0,WarmUp
237076.5625,707788.0625,671586.0625,707972.5,708180.875,708502.4375,708141.375,708636.4375,-0.310302734375,0.716064453125,0.643310546875,-1.5258787870407104,-1.0070799589157104,0.6408690810203552,73.33333587646484,307.0,1.0,WarmUp
237016.203125,707812.5625,672958.375,707996.75,708205.25,708527.0,708165.375,708661.125,-0.31201171875,0.7177734375,0.639892578125,-1.3732908964157104,-1.0986326932907104,0.6408690810203552,73.33333587646484,308.0,1.0,WarmUp
236831.234375,707694.0625,671470.125,707878.6875,708087.0,708408.625,708047.0625,708542.5625,-0.310546875,0.71728515625,0.64013671875,-1.2512205839157104,-1.2817381620407104,0.7324218153953552,73.33333587646484,309.0,1.0,WarmUp
236711.421875,707563.1875,668360.0,707748.1875,707956.0625,708277.8125,707916.8125,708411.8125,-0.310302734375,0.71728515625,0.641357421875,-1.2207030057907104,-1.6479490995407104,0.8544921278953552,73.33333587646484,310.0,1.0,WarmUp
236869.40625,707614.625,667432.125,707799.6875,708008.0625,708329.125,707968.3125,708463.25,-0.30810546875,0.716064453125,0.6416015625,-0.9765624403953552,-1.7395018339157104,0.8850097060203552,73.33333587646484,311.0,1.0,WarmUp
237044.109375,707775.25,669789.5625,707960.1875,708168.8125,708489.875,708129.0625,708623.8125,-0.306396484375,0.71923828125,0.641357421875,-0.7324218153953552,-1.8920897245407104,0.9460448622703552,73.33333587646484,312.0,1.0,WarmUp
236984.109375,707793.125,671028.875,707977.9375,708186.25,708507.75,708146.5625,708641.5,-0.30712890625,0.71875,0.640625,-0.6408690810203552,-1.9836424589157104,1.0375975370407104,73.33333587646484,313.0,1.0,WarmUp
236824.875,707688.8125,669591.5,707874.0625,708082.3125,708403.875,708042.9375,708537.75,-0.306640625,0.720703125,0.6416015625,-0.4882812201976776,-1.9836424589157104,1.0986326932907104,73.33333587646484,314.0,1.0,WarmUp
236695.6875,707558.75,666477.8125,707744.4375,707952.125,708273.875,707912.6875,708407.8125,-0.30908203125,0.72314453125,0.642578125,-0.3662109076976776,-2.014159917831421,1.1291502714157104,73.33333587646484,315.0,1.0,WarmUp
236836.0625,707595.1875,665378.625,707780.8125,707988.0625,708309.9375,707948.625,708444.0,-0.307861328125,0.720703125,0.641357421875,-0.2136230319738388,-2.227782964706421,1.0375975370407104,73.33333587646484,316.0,1.0,WarmUp
237026.21875,707758.4375,667694.375,707943.5,708151.25,708472.625,708111.6875,708607.0,-0.31005859375,0.718994140625,0.638916015625,-0.3051757514476776,-2.502441167831421,1.0986326932907104,73.33333587646484,317.0,1.0,WarmUp
236963.28125,707784.8125,669126.125,707969.375,708177.625,708498.9375,708137.8125,708633.375,-0.3095703125,0.7177734375,0.6376953125,-0.2746581733226776,-2.563476324081421,1.0681151151657104,73.33333587646484,318.0,1.0,WarmUp
236800.734375,707672.875,667689.375,707857.6875,708066.0,708387.5,708026.25,708521.125,-0.30859375,0.718994140625,0.6396484375,-0.4882812201976776,-2.655029058456421,1.0375975370407104,73.33333587646484,319.0,1.0,WarmUp
236669.40625,707538.1875,664557.25,707723.125,707931.25,708252.875,707892.0,708386.6875,-0.30810546875,0.719482421875,0.63818359375,-0.3967284858226776,-2.838134527206421,0.8850097060203552,73.33333587646484,320.0,1.0,WarmUp
236830.421875,707581.4375,663449.5,707766.75,707974.4375,708296.0625,707935.0625,708430.0,-0.308349609375,0.72119140625,0.63818359375,-0.3967284858226776,-3.021239995956421,0.7019042372703552,73.33333587646484,321.0,1.0,WarmUp
237030.25,707754.8125,665806.4375,707939.875,708148.1875,708469.25,708108.125,708603.25,-0.305908203125,0.72265625,0.637451171875,-0.3051757514476776,-3.143310308456421,0.5798339247703552,73.33333587646484,322.0,1.0,WarmUp
236968.828125,707783.9375,667326.625,707968.5625,708177.625,708498.625,708137.625,708632.875,-0.30615234375,0.72314453125,0.63720703125,-0.4577636420726776,-3.295898199081421,0.5493163466453552,73.33333587646484,323.0,1.0,WarmUp
236800.46875,707674.3125,665982.25,707860.0,708068.25,708389.5625,708028.625,708524.0625,-0.3037109375,0.721435546875,0.638671875,-0.3662109076976776,-3.417968511581421,0.5798339247703552,73.33333587646484,324.0,1.0,WarmUp
236673.0625,707541.4375,662918.1875,707727.625,707935.1875,708256.5625,707895.6875,708390.8125,-0.303466796875,0.72265625,0.63671875,-0.4272460639476776,-3.509521245956421,0.4577636420726776,73.33333587646484,325.0,1.0,WarmUp
236810.9375,707578.5,661817.5625,707764.0625,707971.75,708292.9375,707931.75,708427.25,-0.303955078125,0.72412109375,0.637451171875,-0.3356933295726776,-3.479003667831421,0.2441406100988388,73.33333587646484,326.0,1.0,WarmUp
237005.03125,707749.875,664235.375,707934.75,708143.1875,708464.3125,708102.75,708598.625,-0.298828125,0.722412109375,0.63720703125,-0.3356933295726776,-3.479003667831421,0.0915527269244194,73.33333587646484,327.0,1.0,WarmUp
236945.3125,707786.4375,665872.625,707971.4375,708180.0,708501.0625,708140.125,708635.1875,-0.298095703125,0.723388671875,0.63916015625,-0.3662109076976776,-3.601073980331421,0.0,73.33333587646484,328.0,1.0,WarmUp
236785.71875,707679.4375,664603.5625,707864.9375,708073.0,708393.9375,708033.5625,708528.5,-0.296142578125,0.72412109375,0.638427734375,-0.3967284858226776,-3.570556402206421,-0.0610351525247097,73.33333587646484,329.0,1.0,WarmUp
236656.796875,707546.625,661576.1875,707732.375,707940.0625,708261.1875,707900.5,708395.6875,-0.294921875,0.722412109375,0.639404296875,-0.3662109076976776,-3.570556402206421,-0.03051757626235485,73.33333587646484,330.0,1.0,WarmUp
236798.328125,707588.875,660607.875,707774.5625,707982.25,708303.5,707942.5625,708437.5,-0.293212890625,0.721923828125,0.638671875,-0.4272460639476776,-3.570556402206421,-0.03051757626235485,73.33333587646484,331.0,1.0,WarmUp
236981.34375,707757.5625,663157.875,707942.25,708151.125,708472.0,708111.0625,708606.1875,-0.292236328125,0.722900390625,0.638916015625,-0.4882812201976776,-3.448486089706421,-0.0610351525247097,73.33333587646484,332.0,1.0,WarmUp
236905.34375,707771.75,664526.4375,707956.6875,708165.375,708486.3125,708125.625,708620.8125,-0.290771484375,0.721923828125,0.636962890625,-0.5187987685203552,-3.387450933456421,-0.0915527269244194,73.33333587646484,333.0,1.0,WarmUp
236752.734375,707668.3125,663248.6875,707853.5625,708061.4375,708383.0625,708021.9375,708517.1875,-0.288330078125,0.72265625,0.63818359375,-0.3967284858226776,-3.295898199081421,-0.0610351525247097,73.33333587646484,334.0,1.0,WarmUp
236612.359375,707535.0,660229.8125,707720.4375,707928.0,708248.9375,707888.625,708383.875,-0.28662109375,0.723388671875,0.63916015625,-0.3356933295726776,-3.204345464706421,-0.0915527269244194,73.33333587646484,335.0,1.0,WarmUp
236746.296875,707568.5625,659107.625,707754.25,707961.75,708282.75,707922.25,708417.5625,-0.285888671875,0.72216796875,0.640869140625,-0.2746581733226776,-3.021239995956421,-0.2441406100988388,73.33333587646484,336.0,1.0,WarmUp
236945.578125,707739.25,661555.8125,707924.375,708132.375,708453.625,708092.6875,708588.0,-0.284912109375,0.71875,0.6376953125,-0.1525878757238388,-2.838134527206421,-0.2746581733226776,73.33333587646484,337.0,1.0,WarmUp
236896.21875,707779.75,663296.375,707965.0,708173.1875,708494.375,708133.625,708628.5,-0.283935546875,0.720703125,0.6416015625,-0.3051757514476776,-2.624511480331421,-0.1525878757238388,73.33333587646484,338.0,1.0,WarmUp
236732.171875,707668.9375,662072.0,707853.9375,708062.0625,708383.4375,708022.625,708517.8125,-0.285400390625,0.71875,0.63916015625,-0.3051757514476776,-2.471923589706421,-0.0915527269244194,73.33333587646484,339.0,1.0,WarmUp
236598.328125,707536.625,659055.0,707721.8125,707929.5,708251.1875,707890.0,708385.4375,-0.28564453125,0.718017578125,0.637939453125,-0.3051757514476776,-2.227782964706421,-0.1220703050494194,73.33333587646484,340.0,1.0,WarmUp
236737.0,707569.8125,657892.1875,707754.9375,707962.375,708284.1875,707922.9375,708418.4375,-0.2861328125,0.719482421875,0.641357421875,-0.3051757514476776,-2.075195074081421,-0.0610351525247097,73.33333587646484,341.0,1.0,WarmUp
236937.53125,707742.375,660332.9375,707927.25,708135.3125,708456.8125,708095.625,708591.0,-0.287353515625,0.72119140625,0.639404296875,-0.2746581733226776,-1.9836424589157104,0.1525878757238388,73.33333587646484,342.0,1.0,WarmUp
236887.734375,707779.0,662087.6875,707963.9375,708172.25,708493.5,708132.875,708627.75,-0.285400390625,0.7216796875,0.636962890625,-0.2746581733226776,-1.7700194120407104,0.1525878757238388,73.33333587646484,343.0,1.0,WarmUp
236709.359375,707665.5625,660875.0625,707850.625,708058.4375,708379.9375,708019.5,708513.9375,-0.284423828125,0.719482421875,0.638916015625,-0.2441406100988388,-1.7700194120407104,0.1525878757238388,73.33333587646484,344.0,1.0,WarmUp
236565.234375,707529.375,657843.4375,707714.5625,707922.0,708243.75,707882.75,708377.75,-0.283935546875,0.721435546875,0.6416015625,-0.2136230319738388,-1.5258787870407104,0.03051757626235485,73.33333587646484,345.0,1.0,WarmUp
236702.65625,707561.125,656637.0,707746.5625,707954.0,708275.5,707914.625,708409.875,-0.282958984375,0.720458984375,0.642333984375,-0.1525878757238388,-1.4038084745407104,-0.03051757626235485,73.33333587646484,346.0,1.0,WarmUp
236904.71875,707732.5,659063.0625,707917.4375,708125.3125,708447.0,708085.75,708581.0,-0.28564453125,0.7216796875,0.640380859375,-0.1525878757238388,-1.0986326932907104,-0.0915527269244194,73.33333587646484,347.0,1.0,WarmUp
236855.71875,707772.3125,660851.625,707956.9375,708165.375,708486.4375,708125.75,708620.875,-0.283935546875,0.72021484375,0.6416015625,-0.1525878757238388,-0.9460448622703552,-0.1831054538488388,73.33333587646484,348.0,1.0,WarmUp
236695.6875,707661.875,659654.5625,707846.5,708054.9375,708375.8125,708015.5625,708510.4375,-0.285400390625,0.72119140625,0.644287109375,-0.2441406100988388,-0.7629393935203552,-0.1525878757238388,73.33333587646484,349.0,1.0,WarmUp
236553.703125,707522.4375,656611.375,707707.375,707915.25,708236.625,707875.9375,708371.25,-0.284423828125,0.718994140625,0.643310546875,-0.2441406100988388,-0.5493163466453552,-0.3356933295726776,73.33333587646484,350.0,1.0,WarmUp
236672.703125,707549.3125,655348.375,707734.5,707942.25,708263.5,707902.75,708398.1875,-0.287353515625,0.71923828125,0.642333984375,-0.2136230319738388,-0.3662109076976776,-0.4272460639476776,73.33333587646484,351.0,1.0,WarmUp
236872.359375,707724.0625,657766.1875,707908.5625,708116.875,708438.1875,708077.5625,708572.5,-0.286376953125,0.71923828125,0.643798828125,-0.3662109076976776,-0.3051757514476776,-0.5187987685203552,73.33333587646484,352.0,1.0,WarmUp
236823.625,707768.125,659593.375,707951.8125,708161.0625,708482.5,708121.5625,708616.875,-0.286376953125,0.720458984375,0.643310546875,-0.3051757514476776,-0.1525878757238388,-0.5187987685203552,73.33333587646484,353.0,1.0,WarmUp
236664.75,707657.875,658425.3125,707842.3125,708051.1875,708372.25,708011.75,708506.875,-0.28662109375,0.719482421875,0.640869140625,-0.2441406100988388,0.0,-0.5493163466453552,73.33333587646484,354.0,1.0,WarmUp
236534.484375,707520.1875,655389.1875,707705.25,707913.6875,708234.625,707874.0625,708369.125,-0.290283203125,0.720703125,0.6435546875,-0.3051757514476776,0.03051757626235485,-0.7019042372703552,73.33333587646484,355.0,1.0,WarmUp
236662.609375,707546.625,654096.375,707731.75,707939.9375,708261.4375,707900.625,708395.5625,-0.2919921875,0.72216796875,0.644287109375,-0.3051757514476776,0.0,-0.8544921278953552,73.33333587646484,356.0,1.0,WarmUp
236873.15625,707724.0625,656504.375,707908.375,708117.4375,708439.125,708077.625,708572.9375,-0.292724609375,0.71923828125,0.64453125,-0.3967284858226776,0.1220703050494194,-0.8544921278953552,73.33333587646484,357.0,1.0,WarmUp
236830.515625,707766.5,658363.6875,707950.5625,708160.1875,708481.375,708120.4375,708615.6875,-0.292724609375,0.719970703125,0.642578125,-0.3967284858226776,0.1525878757238388,-0.9460448622703552,73.33333587646484,358.0,1.0,WarmUp
236659.75,707653.6875,657226.1875,707837.875,708047.0625,708368.3125,708007.4375,708502.6875,-0.294921875,0.72119140625,0.64208984375,-0.5493163466453552,0.1831054538488388,-0.9765624403953552,73.33333587646484,359.0,1.0,WarmUp
236531.0,707516.8125,654209.5625,707701.25,707909.9375,708231.0625,707870.5,708365.5,-0.29345703125,0.72216796875,0.641357421875,-0.5798339247703552,0.1525878757238388,-0.9765624403953552,73.33333587646484,360.0,1.0,WarmUp
236642.75,707531.0,652847.25,707715.5625,707924.0625,708245.25,707885.0625,708379.8125,-0.29345703125,0.72314453125,0.644287109375,-0.5493163466453552,0.2441406100988388,-1.0681151151657104,73.33333587646484,361.0,1.0,WarmUp
236850.453125,707710.0625,655255.1875,707894.4375,708103.375,708424.8125,708064.25,708559.125,-0.294677734375,0.7216796875,0.64111328125,-0.6713866591453552,0.1831054538488388,-1.0681151151657104,73.33333587646484,362.0,1.0,WarmUp
236820.765625,707762.3125,657186.8125,707946.1875,708155.6875,708477.125,708116.375,708611.375,-0.29541015625,0.719482421875,0.641845703125,-0.7629393935203552,0.2746581733226776,-1.0070799589157104,73.33333587646484,363.0,1.0,WarmUp
236642.046875,707650.8125,656088.4375,707834.375,708043.75,708365.0625,708004.875,708499.8125,-0.295654296875,0.7197265625,0.64111328125,-0.7019042372703552,0.1831054538488388,-0.8544921278953552,73.33333587646484,364.0,1.0,WarmUp
236511.0625,707509.75,653077.25,707693.625,707902.5,708224.0625,707863.3125,708358.8125,-0.297119140625,0.71923828125,0.639892578125,-0.7019042372703552,0.1525878757238388,-0.9155272841453552,73.33333587646484,365.0,1.0,WarmUp
236651.703125,707538.625,651832.125,707722.8125,707931.4375,708252.875,707892.5,708387.4375,-0.2978515625,0.718505859375,0.6396484375,-0.6713866591453552,0.03051757626235485,-0.7934569716453552,73.33333587646484,366.0,1.0,WarmUp
236857.78125,707714.9375,654340.9375,707898.5625,708108.0625,708429.4375,708068.8125,708563.9375,-0.29833984375,0.7177734375,0.641845703125,-0.6408690810203552,0.1220703050494194,-0.8850097060203552,73.33333587646484,367.0,1.0,WarmUp
236805.84375,707750.9375,656048.875,707934.3125,708143.875,708465.5625,708105.1875,708599.875,-0.296142578125,0.715576171875,0.642578125,-0.5798339247703552,-0.03051757626235485,-0.9155272841453552,73.33333587646484,368.0,1.0,WarmUp
236644.90625,707643.375,654924.625,707827.1875,708036.3125,708358.1875,707997.625,708492.1875,-0.299560546875,0.718017578125,0.64453125,-0.4272460639476776,-0.0610351525247097,-0.7934569716453552,73.33333587646484,369.0,1.0,WarmUp
236507.484375,707502.125,651902.25,707686.375,707895.0,708216.6875,707856.375,708351.0625,-0.30078125,0.71533203125,0.64404296875,-0.3662109076976776,-0.1220703050494194,-0.7324218153953552,73.33333587646484,370.0,1.0,WarmUp
236632.203125,707519.1875,650465.1875,707703.0,707912.0625,708233.5,707873.1875,708368.1875,-0.302490234375,0.714111328125,0.641845703125,-0.3662109076976776,-0.1831054538488388,-0.7629393935203552,73.33333587646484,371.0,1.0,WarmUp
236848.390625,707697.0625,652839.4375,707880.5625,708090.4375,708411.5625,708050.8125,708546.3125,-0.304931640625,0.71484375,0.642333984375,-0.3051757514476776,-0.2746581733226776,-0.6103515028953552,73.33333587646484,372.0,1.0,WarmUp
236811.015625,707749.25,654805.125,707932.875,708142.875,708463.875,708103.125,708598.6875,-0.307861328125,0.714599609375,0.640625,-0.2441406100988388,-0.5493163466453552,-0.5798339247703552,73.33333587646484,373.0,1.0,WarmUp
236644.015625,707638.0,653723.9375,707821.3125,708031.3125,708352.5625,707991.6875,708486.9375,-0.307861328125,0.71337890625,0.639892578125,-0.0610351525247097,-0.7324218153953552,-0.3662109076976776,73.33333587646484,374.0,1.0,WarmUp
236508.5625,707493.375,650690.8125,707677.0,707886.375,708207.875,707847.125,708342.125,-0.309326171875,0.716064453125,0.641845703125,0.0,-0.9155272841453552,-0.2441406100988388,73.33333587646484,375.0,1.0,WarmUp
236630.234375,707510.4375,649212.0625,707693.875,707903.5625,708224.875,707864.5,708359.25,-0.309814453125,0.71728515625,0.64208984375,0.1220703050494194,-1.0986326932907104,-0.2136230319738388,73.33333587646484,376.0,1.0,WarmUp
236845.171875,707685.875,651533.875,707869.4375,708079.25,708400.6875,708040.25,708535.375,-0.308349609375,0.716796875,0.643310546875,0.1525878757238388,-1.2512205839157104,-0.1525878757238388,73.33333587646484,377.0,1.0,WarmUp
236812.546875,707739.9375,653519.8125,707923.125,708133.25,708454.6875,708094.1875,708589.5625,-0.307861328125,0.7158203125,0.6455078125,0.3356933295726776,-1.4648436307907104,-0.1831054538488388,73.33333587646484,378.0,1.0,WarmUp
236657.6875,707633.3125,652464.25,707816.375,708026.25,708347.75,707987.1875,708482.625,-0.308837890625,0.716552734375,0.6435546875,0.4272460639476776,-1.5563963651657104,-0.0915527269244194,73.33333587646484,379.0,1.0,WarmUp
236519.46875,707492.3125,649416.375,707675.75,707885.125,708206.5,707846.1875,708341.8125,-0.307373046875,0.716064453125,0.6435546875,0.4882812201976776,-1.8310545682907104,-0.1220703050494194,73.33333587646484,380.0,1.0,WarmUp
236628.984375,707502.125,647855.625,707685.6875,707895.4375,708216.9375,707856.375,708351.875,-0.3076171875,0.716064453125,0.643310546875,0.6408690810203552,-1.9836424589157104,-0.1831054538488388,73.33333587646484,381.0,1.0,WarmUp
236847.5,707678.1875,650164.6875,707860.8125,708071.1875,708392.6875,708032.3125,708527.375,-0.306884765625,0.716796875,0.6455078125,0.5798339247703552,-2.197265386581421,-0.2441406100988388,73.33333587646484,382.0,1.0,WarmUp
236820.671875,707739.0625,652205.1875,707921.25,708131.8125,708453.4375,708093.0,708588.0,-0.306640625,0.71630859375,0.64208984375,0.6103515028953552,-2.410888433456421,-0.2441406100988388,73.33333587646484,383.0,1.0,WarmUp
236663.046875,707633.125,651186.375,707815.5,708025.9375,708347.3125,707986.8125,708481.375,-0.306396484375,0.71728515625,0.64208984375,0.6408690810203552,-2.502441167831421,-0.2441406100988388,73.33333587646484,384.0,1.0,WarmUp
236525.71875,707486.5,648159.75,707668.75,707879.5,708200.75,707840.4375,708335.375,-0.304931640625,0.718994140625,0.64404296875,0.7934569716453552,-2.593993902206421,-0.3662109076976776,73.33333587646484,385.0,1.0,WarmUp
236654.46875,707502.8125,646687.0625,707685.75,707896.4375,708217.5625,707857.0625,708352.1875,-0.303466796875,0.7216796875,0.64306640625,0.7019042372703552,-2.716064214706421,-0.3967284858226776,73.33333587646484,386.0,1.0,WarmUp
236862.609375,707683.875,649158.5,707866.375,708077.5625,708398.6875,708037.9375,708533.0625,-0.30126953125,0.7216796875,0.647705078125,0.7324218153953552,-2.685546636581421,-0.3967284858226776,73.33333587646484,387.0,1.0,WarmUp
236822.015625,707733.5,651066.3125,707915.8125,708126.8125,708448.25,708087.625,708582.625,-0.299560546875,0.720703125,0.646240234375,0.7019042372703552,-2.807616949081421,-0.5187987685203552,73.33333587646484,388.0,1.0,WarmUp
236669.140625,707631.75,650068.25,707813.875,708024.875,708346.3125,707985.8125,708480.875,-0.297119140625,0.721923828125,0.6435546875,0.5187987685203552,-2.685546636581421,-0.4272460639476776,73.33333587646484,389.0,1.0,WarmUp
236527.25,707490.125,647094.3125,707672.0,707883.0,708204.25,707844.125,708339.125,-0.29443359375,0.719970703125,0.642578125,0.3967284858226776,-2.685546636581421,-0.5798339247703552,73.33333587646484,390.0,1.0,WarmUp
236634.171875,707498.625,645519.375,707680.6875,707892.125,708212.8125,707852.625,708347.625,-0.293212890625,0.7197265625,0.642822265625,0.4272460639476776,-2.685546636581421,-0.5493163466453552,73.33333587646484,391.0,1.0,WarmUp
236850.453125,707674.875,647859.875,707856.375,708068.0,708388.875,708028.75,708523.9375,-0.2900390625,0.720703125,0.642822265625,0.3967284858226776,-2.655029058456421,-0.5493163466453552,73.33333587646484,392.0,1.0,WarmUp
236838.46875,707738.4375,650036.25,707919.375,708131.5625,708452.875,708092.5,708587.6875,-0.2900390625,0.721435546875,0.639404296875,0.4577636420726776,-2.502441167831421,-0.5798339247703552,73.33333587646484,393.0,1.0,WarmUp
236681.46875,707631.5,649128.125,707813.0,708025.0,708345.9375,707985.75,708481.125,-0.289306640625,0.721923828125,0.638427734375,0.3356933295726776,-2.197265386581421,-0.6103515028953552,73.33333587646484,394.0,1.0,WarmUp
236537.609375,707483.25,646142.1875,707665.0,707876.3125,708197.5625,707837.3125,708332.4375,-0.289794921875,0.723388671875,0.63818359375,0.2136230319738388,-2.105712652206421,-0.5798339247703552,73.33333587646484,395.0,1.0,WarmUp
236652.859375,707488.6875,644515.1875,707670.1875,707881.8125,708202.8125,707842.5625,708337.875,-0.2900390625,0.72412109375,0.63818359375,0.3356933295726776,-1.9836424589157104,-0.6408690810203552,73.33333587646484,396.0,1.0,WarmUp
236880.765625,707667.25,646830.25,707848.125,708060.625,708381.625,708021.25,708516.5625,-0.289794921875,0.723876953125,0.639404296875,0.2136230319738388,-1.8005369901657104,-0.6713866591453552,73.33333587646484,397.0,1.0,WarmUp
236864.390625,707733.9375,649029.9375,707914.125,708127.375,708448.25,708087.75,708583.0625,-0.28955078125,0.72607421875,0.639892578125,0.1220703050494194,-1.6479490995407104,-0.6408690810203552,73.33333587646484,398.0,1.0,WarmUp
236719.109375,707633.125,648155.625,707813.375,708026.6875,708347.5625,707987.0625,708482.0,-0.289794921875,0.727294921875,0.63818359375,0.03051757626235485,-1.4648436307907104,-0.5798339247703552,73.33333587646484,399.0,1.0,WarmUp
236587.0625,707490.75,645193.5,707671.75,707884.3125,708205.5,707844.5625,708339.875,-0.292236328125,0.72509765625,0.636474609375,-0.0915527269244194,-1.2512205839157104,-0.5798339247703552,73.33333587646484,400.0,1.0,WarmUp
236690.765625,707491.1875,643530.875,707672.1875,707884.625,708205.5625,707845.0,708340.125,-0.292236328125,0.72607421875,0.637939453125,-0.2746581733226776,-1.1291502714157104,-0.5187987685203552,73.33333587646484,401.0,1.0,WarmUp
236902.578125,707669.9375,645830.25,707850.0,708063.0,708384.375,708023.625,708518.875,-0.2939453125,0.724609375,0.64013671875,-0.4272460639476776,-1.0375975370407104,-0.4577636420726776,73.33333587646484,402.0,1.0,WarmUp
236893.015625,707737.5625,648076.625,707917.25,708130.75,708452.0625,708091.5625,708586.25,-0.296875,0.723388671875,0.638671875,-0.4272460639476776,-0.9460448622703552,-0.4272460639476776,73.33333587646484,403.0,1.0,WarmUp
236749.515625,707633.8125,647246.5625,707813.6875,708027.375,708348.375,707987.8125,708482.5,-0.299072265625,0.72412109375,0.638671875,-0.6103515028953552,-0.9460448622703552,-0.4577636420726776,73.33333587646484,404.0,1.0,WarmUp
236626.21875,707491.125,644317.25,707671.4375,707884.5,708205.9375,707845.0,708340.125,-0.297607421875,0.72021484375,0.637939453125,-0.7019042372703552,-0.8850097060203552,-0.3051757514476776,73.33333587646484,405.0,1.0,WarmUp
236740.75,707501.6875,642745.1875,707681.75,707894.6875,708216.0625,707855.4375,708351.25,-0.299560546875,0.719970703125,0.6376953125,-0.7629393935203552,-0.9155272841453552,-0.3662109076976776,73.33333587646484,406.0,1.0,WarmUp
236951.21875,707682.4375,645202.8125,707862.1875,708075.5,708396.9375,708036.125,708531.4375,-0.298828125,0.718994140625,0.63671875,-0.6408690810203552,-0.9460448622703552,-0.1831054538488388,73.33333587646484,407.0,1.0,WarmUp
236921.703125,707728.9375,647169.5625,707908.3125,708122.3125,708444.0,708082.625,708578.0625,-0.298828125,0.71875,0.635009765625,-0.6103515028953552,-0.9460448622703552,-0.1525878757238388,73.33333587646484,408.0,1.0,WarmUp
236783.03125,707624.6875,646268.1875,707804.0625,708018.25,708339.6875,707978.9375,708473.875,-0.298583984375,0.718505859375,0.637939453125,-0.5798339247703552,-1.0070799589157104,-0.0610351525247097,73.33333587646484,409.0,1.0,WarmUp
236650.984375,707474.3125,643307.4375,707653.5625,707867.5625,708188.6875,707828.3125,708323.5,-0.298583984375,0.71923828125,0.63427734375,-0.4577636420726776,-1.0681151151657104,0.03051757626235485,73.33333587646484,410.0,1.0,WarmUp
236747.546875,707469.75,641547.75,707648.5625,707862.8125,708183.875,707823.375,708318.875,-0.300048828125,0.718994140625,0.635986328125,-0.4577636420726776,-1.1291502714157104,0.03051757626235485,73.33333587646484,411.0,1.0,WarmUp
236961.140625,707647.25,643785.625,707826.375,708040.625,708361.6875,708000.8125,708496.5,-0.29931640625,0.71826171875,0.63818359375,-0.4272460639476776,-1.2817381620407104,-0.03051757626235485,73.33333587646484,412.0,1.0,WarmUp
236967.21875,707721.1875,646080.6875,707900.4375,708115.125,708436.0625,708075.25,708570.375,-0.300537109375,0.720703125,0.638427734375,-0.2746581733226776,-1.3427733182907104,0.0610351525247097,73.33333587646484,413.0,1.0,WarmUp
236833.375,707622.8125,645275.0625,707800.75,708016.1875,708337.375,707976.3125,708471.5625,-0.30029296875,0.720458984375,0.638916015625,-0.3051757514476776,-1.4648436307907104,0.0610351525247097,73.33333587646484,414.0,1.0,WarmUp
236702.03125,707472.25,642286.625,707647.125,707865.75,708187.1875,707826.25,708321.75,-0.300048828125,0.720458984375,0.640869140625,-0.3051757514476776,-1.5258787870407104,0.0610351525247097,73.33333587646484,415.0,1.0,WarmUp
236798.234375,707464.8125,640447.1875,707636.5,707858.125,708179.5625,707818.875,708314.1875,-0.30078125,0.72216796875,0.640380859375,-0.3051757514476776,-1.6174315214157104,0.0610351525247097,73.33333587646484,416.0,1.0,WarmUp
237029.078125,707647.3125,642651.6875,707819.25,708040.625,708362.0625,708001.3125,708496.75,-0.298828125,0.724609375,0.64208984375,-0.2746581733226776,-1.7700194120407104,0.03051757626235485,73.33333587646484,417.0,1.0,WarmUp
237020.234375,707717.3125,644921.0625,707890.0,708110.375,708432.375,708071.5625,708566.6875,-0.297607421875,0.7255859375,0.6435546875,-0.3662109076976776,-1.8310545682907104,0.0,73.33333587646484,418.0,1.0,WarmUp
236879.859375,707614.125,644099.6875,707785.25,708007.125,708328.9375,707968.1875,708463.4375,-0.299072265625,0.725830078125,0.64306640625,-0.4577636420726776,-1.8310545682907104,-0.1220703050494194,73.33333587646484,419.0,1.0,WarmUp
236744.328125,707462.9375,641095.5625,707630.875,707856.4375,708177.75,707817.1875,708312.75,-0.29833984375,0.726806640625,0.640380859375,-0.4272460639476776,-1.8920897245407104,-0.1525878757238388,73.33333587646484,420.0,1.0,WarmUp
236835.34375,707455.8125,639205.625,707619.625,707849.0,708170.25,707809.875,708304.8125,-0.2978515625,0.725830078125,0.643798828125,-0.5493163466453552,-1.8920897245407104,-0.2136230319738388,73.33333587646484,421.0,1.0,WarmUp
237051.171875,707637.75,641373.9375,707801.375,708030.8125,708352.1875,707991.625,708486.875,-0.297119140625,0.72265625,0.642578125,-0.7019042372703552,-1.8920897245407104,-0.2441406100988388,73.33333587646484,422.0,1.0,WarmUp
237040.53125,707715.8125,643682.375,707880.5625,708109.0,708430.25,708069.6875,708565.0625,-0.296630859375,0.72265625,0.642822265625,-0.7324218153953552,-1.8615721464157104,-0.3356933295726776,73.33333587646484,423.0,1.0,WarmUp
236889.515625,707614.0,642889.25,707777.6875,708007.0,708328.8125,707967.9375,708463.0625,-0.295166015625,0.72265625,0.640625,-0.7324218153953552,-1.8920897245407104,-0.4272460639476776,73.33333587646484,424.0,1.0,WarmUp
236739.046875,707461.875,639883.6875,707622.0,707855.375,708177.0,707816.125,708311.4375,-0.293212890625,0.72265625,0.64208984375,-0.7324218153953552,-1.8615721464157104,-0.4577636420726776,73.33333587646484,425.0,1.0,WarmUp
236815.765625,707452.25,638012.625,707608.3125,707845.4375,708167.375,707806.3125,708301.4375,-0.294677734375,0.72119140625,0.640380859375,-0.6408690810203552,-1.7395018339157104,-0.3662109076976776,73.33333587646484,426.0,1.0,WarmUp
237019.703125,707634.25,640256.0,707790.3125,708027.3125,708349.5,707988.25,708483.5625,-0.29345703125,0.719482421875,0.6376953125,-0.7019042372703552,-1.7395018339157104,-0.4272460639476776,73.33333587646484,427.0,1.0,WarmUp
237002.0,707702.125,642384.0,707859.3125,708095.0625,708417.1875,708056.0,708551.5625,-0.292724609375,0.719970703125,0.63916015625,-0.6408690810203552,-1.5563963651657104,-0.5798339247703552,73.33333587646484,428.0,1.0,WarmUp
236848.578125,707603.75,641554.4375,707759.0625,707996.75,708318.5,707957.375,708452.9375,-0.29345703125,0.718017578125,0.64013671875,-0.5493163466453552,-1.4343260526657104,-0.5187987685203552,73.33333587646484,429.0,1.0,WarmUp
236696.3125,707450.875,638540.0,707602.25,707843.8125,708165.5,707804.875,708300.0,-0.2939453125,0.718017578125,0.637939453125,-0.3967284858226776,-1.4038084745407104,-0.5493163466453552,73.33333587646484,430.0,1.0,WarmUp
236763.015625,707436.125,636540.4375,707583.1875,707829.375,708150.75,707790.0,708284.8125,-0.291748046875,0.717041015625,0.63818359375,-0.3356933295726776,-1.1901854276657104,-0.6408690810203552,73.33333587646484,431.0,1.0,WarmUp
236961.046875,707616.3125,638631.8125,707763.625,708009.75,708331.125,707970.1875,708465.1875,-0.291259765625,0.7158203125,0.639404296875,-0.3051757514476776,-1.1291502714157104,-0.5798339247703552,73.33333587646484,432.0,1.0,WarmUp
236944.0625,707700.5,640980.9375,707849.3125,708094.0,708415.3125,708054.375,708549.875,-0.2919921875,0.71435546875,0.637939453125,-0.1525878757238388,-1.0681151151657104,-0.6103515028953552,73.33333587646484,433.0,1.0,WarmUp
236770.4375,707595.375,640191.0,707742.625,707988.4375,708310.1875,707949.1875,708444.5,-0.290771484375,0.716796875,0.637451171875,0.03051757626235485,-0.9155272841453552,-0.5187987685203552,73.33333587646484,434.0,1.0,WarmUp
236619.515625,707443.5,637164.25,707586.375,707836.4375,708158.0,707797.0,708292.1875,-0.29052734375,0.7158203125,0.63720703125,0.2136230319738388,-0.7629393935203552,-0.3356933295726776,73.33333587646484,435.0,1.0,WarmUp
236691.03125,707427.5,635114.375,707566.25,707821.125,708142.4375,707781.3125,708276.5,-0.28955078125,0.715576171875,0.6357421875,0.3051757514476776,-0.5798339247703552,-0.2746581733226776,73.33333587646484,436.0,1.0,WarmUp
236915.625,707610.5,637186.8125,707749.0625,708004.25,708325.625,707964.375,708459.5,-0.29248046875,0.71728515625,0.6376953125,0.5187987685203552,-0.3967284858226776,-0.2136230319738388,73.33333587646484,437.0,1.0,WarmUp
236901.953125,707692.9375,639542.6875,707833.375,708086.75,708408.0,708046.8125,708541.75,-0.293212890625,0.717041015625,0.638916015625,0.7324218153953552,-0.2441406100988388,-0.1831054538488388,73.33333587646484,438.0,1.0,WarmUp
236731.890625,707589.5625,638778.1875,707727.875,707983.5,708304.5625,707943.375,708438.6875,-0.294921875,0.71875,0.638671875,0.8544921278953552,-0.2136230319738388,-0.1525878757238388,73.33333587646484,439.0,1.0,WarmUp
236576.78125,707437.6875,635754.25,707571.4375,707831.5625,708152.375,707791.1875,708286.875,-0.294921875,0.719482421875,0.6416015625,0.8850097060203552,-0.0915527269244194,-0.0915527269244194,73.33333587646484,440.0,1.0,WarmUp
236644.453125,707418.875,633656.5,707548.1875,707812.5625,708133.0625,707772.0625,708267.375,-0.29638671875,0.720458984375,0.63818359375,1.0986326932907104,-0.03051757626235485,-0.0915527269244194,73.33333587646484,441.0,1.0,WarmUp
236848.75,707595.0,635680.4375,707724.3125,707988.4375,708309.625,707948.375,708443.5625,-0.29833984375,0.71875,0.6396484375,1.1291502714157104,-0.03051757626235485,-0.1220703050494194,73.33333587646484,442.0,1.0,WarmUp
236851.875,707684.5,638083.3125,707815.6875,708077.8125,708399.4375,708038.1875,708533.4375,-0.29931640625,0.718505859375,0.642822265625,1.1291502714157104,0.0610351525247097,-0.1831054538488388,73.33333587646484,443.0,1.0,WarmUp
236690.40625,707587.4375,637374.25,707717.0625,707981.1875,708302.4375,707941.125,708436.3125,-0.301025390625,0.71875,0.642822265625,1.1901854276657104,0.03051757626235485,-0.1525878757238388,73.33333587646484,444.0,1.0,WarmUp
236532.25,707431.0625,634374.25,707555.5625,707824.8125,708146.0625,707784.9375,708279.625,-0.30322265625,0.718994140625,0.640380859375,1.2512205839157104,0.1220703050494194,-0.3051757514476776,73.33333587646484,445.0,1.0,WarmUp
236601.984375,707415.875,632357.1875,707536.1875,707809.875,708130.9375,707769.75,708265.125,-0.306396484375,0.721435546875,0.638671875,1.2207030057907104,0.03051757626235485,-0.4272460639476776,73.33333587646484,446.0,1.0,WarmUp
236806.109375,707601.8125,634596.25,707722.5,707995.5,708316.875,707955.3125,708451.375,-0.3056640625,0.722412109375,0.640380859375,1.3122557401657104,-0.0915527269244194,-0.5187987685203552,73.33333587646484,447.0,1.0,WarmUp
236785.265625,707672.4375,636776.125,707794.5625,708066.3125,708387.625,708025.875,708521.875,-0.307373046875,0.723876953125,0.642822265625,1.2817381620407104,-0.1220703050494194,-0.5798339247703552,73.33333587646484,448.0,1.0,WarmUp
236640.515625,707578.125,636028.125,707698.125,707971.9375,708293.3125,707931.4375,708427.25,-0.3076171875,0.724609375,0.640869140625,1.0986326932907104,-0.2746581733226776,-0.6408690810203552,73.33333587646484,449.0,1.0,WarmUp
236495.421875,707430.875,633099.625,707545.6875,707824.4375,708145.6875,707784.125,708279.6875,-0.30859375,0.7255859375,0.6396484375,0.9765624403953552,-0.4272460639476776,-0.7934569716453552,73.33333587646484,450.0,1.0,WarmUp
236558.71875,707409.125,630989.625,707518.5625,707802.6875,708123.9375,707762.3125,708258.0,-0.307861328125,0.726318359375,0.642822265625,0.9765624403953552,-0.7019042372703552,-0.9460448622703552,73.33333587646484,451.0,1.0,WarmUp
236754.875,707586.8125,633011.25,707697.0625,707980.5625,708302.0625,707940.5,708435.8125,-0.3095703125,0.72802734375,0.644287109375,0.7629393935203552,-0.7324218153953552,-0.8850097060203552,73.33333587646484,452.0,1.0,WarmUp
236748.609375,707675.0625,635508.5625,707786.875,708068.6875,708390.1875,708028.9375,708524.0625,-0.3076171875,0.72900390625,0.6435546875,0.7019042372703552,-0.8850097060203552,-0.9460448622703552,73.33333587646484,453.0,1.0,WarmUp
236598.140625,707583.0625,634917.25,707693.125,707976.25,708297.875,707936.4375,708431.6875,-0.306640625,0.726806640625,0.642822265625,0.5798339247703552,-1.0681151151657104,-0.8239745497703552,73.33333587646484,454.0,1.0,WarmUp
236448.65625,707432.375,631998.1875,707537.375,707825.625,708146.75,707785.625,708280.875,-0.306396484375,0.726806640625,0.6416015625,0.4882812201976776,-1.1596678495407104,-0.8850097060203552,73.33333587646484,455.0,1.0,WarmUp
236504.984375,707403.5,629844.1875,707502.6875,707796.8125,708117.6875,707756.5,708252.0,-0.305908203125,0.724365234375,0.6376953125,0.3967284858226776,-1.3122557401657104,-0.8239745497703552,73.33333587646484,456.0,1.0,WarmUp
236699.703125,707579.3125,631842.8125,707678.875,707972.6875,708293.5625,707932.4375,708427.6875,-0.306884765625,0.7236328125,0.636962890625,0.2746581733226776,-1.3122557401657104,-0.8239745497703552,73.33333587646484,457.0,1.0,WarmUp
236710.625,707678.0,634397.5,707780.25,708071.75,708392.375,708031.4375,708526.4375,-0.305419921875,0.720947265625,0.635986328125,0.2746581733226776,-1.4343260526657104,-0.7324218153953552,73.33333587646484,458.0,1.0,WarmUp
236563.625,707588.5625,633837.9375,707688.5625,707982.25,708303.0625,707942.125,708437.0625,-0.30712890625,0.720947265625,0.63671875,0.2441406100988388,-1.6174315214157104,-0.6103515028953552,73.33333587646484,459.0,1.0,WarmUp
236402.796875,707432.8125,630913.0,707527.0,707826.375,708147.625,707786.1875,708281.5625,-0.30712890625,0.719482421875,0.634033203125,0.2746581733226776,-1.7395018339157104,-0.5187987685203552,73.33333587646484,460.0,1.0,WarmUp
236454.28125,707403.3125,628721.9375,707491.3125,707796.875,708118.3125,707756.9375,708252.0625,-0.305908203125,0.71826171875,0.63720703125,0.3967284858226776,-1.8920897245407104,-0.5187987685203552,73.33333587646484,461.0,1.0,WarmUp
236652.234375,707579.3125,630689.1875,707667.5,707972.875,708294.25,707932.625,708428.0,-0.302978515625,0.718994140625,0.63623046875,0.4272460639476776,-1.9836424589157104,-0.4882812201976776,73.33333587646484,462.0,1.0,WarmUp
236659.484375,707674.5,633246.4375,707765.4375,708068.0625,708389.25,708027.8125,708523.0625,-0.302490234375,0.71826171875,0.6357421875,0.4882812201976776,-2.044677495956421,-0.3051757514476776,73.33333587646484,463.0,1.0,WarmUp
236513.03125,707582.4375,632699.875,707671.0,707976.1875,708297.0625,707935.3125,708430.8125,-0.3017578125,0.718017578125,0.635986328125,0.6408690810203552,-2.044677495956421,-0.2136230319738388,73.33333587646484,464.0,1.0,WarmUp
236375.15625,707433.9375,629790.75,707516.0,707827.625,708148.6875,707787.3125,708282.125,-0.3037109375,0.718994140625,0.638427734375,0.6408690810203552,-2.197265386581421,-0.2441406100988388,73.33333587646484,465.0,1.0,WarmUp
236414.140625,707400.5625,627598.75,707475.3125,707794.3125,708115.5625,707753.8125,708248.5625,-0.304443359375,0.71728515625,0.635498046875,0.7019042372703552,-2.319335699081421,-0.2441406100988388,73.33333587646484,466.0,1.0,WarmUp
236602.078125,707580.1875,629691.5,707655.4375,707973.5,708295.1875,707933.1875,708427.9375,-0.303955078125,0.71630859375,0.63720703125,0.7019042372703552,-2.532958745956421,-0.3051757514476776,73.33333587646484,467.0,1.0,WarmUp
236596.4375,707659.1875,631999.0625,707737.0625,708052.25,708374.125,708012.0,708507.0625,-0.30029296875,0.719482421875,0.6376953125,0.7324218153953552,-2.593993902206421,-0.3662109076976776,73.33333587646484,468.0,1.0,WarmUp
236457.859375,707565.0,631345.4375,707640.6875,707958.4375,708279.8125,707917.6875,708412.9375,-0.30126953125,0.7197265625,0.638916015625,0.7934569716453552,-2.624511480331421,-0.3051757514476776,73.33333587646484,469.0,1.0,WarmUp
236303.1875,707409.4375,628345.5,707476.1875,707803.0625,708124.375,707762.3125,708257.1875,-0.3017578125,0.720947265625,0.635498046875,0.7934569716453552,-2.716064214706421,-0.3356933295726776,73.33333587646484,470.0,1.0,WarmUp
236337.34375,707366.875,625909.3125,707421.375,707759.6875,708081.9375,707719.8125,708214.625,-0.300048828125,0.720458984375,0.6376953125,0.7324218153953552,-2.716064214706421,-0.3051757514476776,73.33333587646484,471.0,1.0,WarmUp
236545.75,707543.8125,627681.6875,707599.0625,707936.9375,708258.4375,707896.6875,708391.4375,-0.296875,0.722412109375,0.638427734375,0.7019042372703552,-2.777099370956421,-0.4577636420726776,73.33333587646484,472.0,1.0,WarmUp
236559.34375,707643.125,630137.375,707703.625,708036.625,708357.75,707995.625,708490.9375,-0.296630859375,0.719970703125,0.634521484375,0.6713866591453552,-2.807616949081421,-0.6103515028953552,73.33333587646484,473.0,1.0,WarmUp
236411.734375,707550.75,629491.75,707606.75,707944.125,708265.3125,707903.3125,708398.8125,-0.294921875,0.7197265625,0.63818359375,0.6713866591453552,-2.746581792831421,-0.5798339247703552,73.33333587646484,474.0,1.0,WarmUp
236254.1875,707393.6875,626452.75,707201.625,707787.4375,708108.5,707746.1875,708241.4375,-0.291748046875,0.71923828125,0.636474609375,0.5187987685203552,-2.746581792831421,-0.5493163466453552,73.33333587646484,475.0,1.0,WarmUp
236292.46875,707355.9375,624014.9375,706109.3125,707750.0625,708071.0,707708.125,708203.375,-0.29052734375,0.72021484375,0.636474609375,0.4882812201976776,-2.624511480331421,-0.5798339247703552,73.33333587646484,476.0,1.0,WarmUp
236476.1875,707529.75,625798.0625,706382.0625,707924.125,708245.125,707882.125,708377.125,-0.289794921875,0.722412109375,0.63671875,0.5187987685203552,-2.563476324081421,-0.6713866591453552,73.33333587646484,477.0,1.0,WarmUp
236486.5625,707634.1875,628376.6875,707362.1875,708027.9375,708349.25,707987.0,708481.9375,-0.290283203125,0.722412109375,0.63720703125,0.4272460639476776,-2.441406011581421,-0.7324218153953552,73.33333587646484,478.0,1.0,WarmUp
236340.65625,707545.75,627887.4375,706855.8125,707939.4375,708260.9375,707898.1875,708393.125,-0.2900390625,0.723388671875,0.63720703125,0.4272460639476776,-2.380370855331421,-0.6408690810203552,73.33333587646484,479.0,1.0,WarmUp
236179.546875,707392.3125,624992.375,704762.875,707786.25,708107.25,707744.625,708239.5625,-0.2890625,0.7255859375,0.6376953125,0.3967284858226776,-2.288818120956421,-0.5493163466453552,73.33333587646484,480.0,1.0,WarmUp
236216.203125,707357.0,622650.0625,702468.3125,707750.9375,708071.9375,707709.125,708204.25,-0.287109375,0.726806640625,0.638916015625,0.4272460639476776,-2.258300542831421,-0.6408690810203552,73.33333587646484,481.0,1.0,WarmUp
236416.296875,707538.0625,624538.4375,702839.3125,707931.875,708252.9375,707889.6875,708384.8125,-0.28662109375,0.7275390625,0.637451171875,0.3051757514476776,-2.227782964706421,-0.4577636420726776,73.33333587646484,482.0,1.0,WarmUp
236429.96875,707644.375,627237.8125,704120.6875,708038.125,708359.25,707995.8125,708491.5,-0.287841796875,0.729248046875,0.639892578125,0.1525878757238388,-2.105712652206421,-0.3967284858226776,73.33333587646484,483.0,1.0,WarmUp
236284.421875,707556.1875,626859.4375,703526.3125,707950.0625,708271.125,707908.1875,708403.1875,-0.286376953125,0.728515625,0.638671875,0.1220703050494194,-1.9226073026657104,-0.4577636420726776,73.33333587646484,484.0,1.0,WarmUp
236129.5625,707404.5,624047.125,701309.8125,707798.3125,708119.0625,707756.125,708251.1875,-0.285400390625,0.72705078125,0.637451171875,0.0915527269244194,-1.7700194120407104,-0.4272460639476776,73.33333587646484,485.0,1.0,WarmUp
236171.5,707367.125,621773.1875,699123.375,707760.9375,708081.8125,707718.9375,708214.0625,-0.28466796875,0.725830078125,0.638671875,-0.1220703050494194,-1.6784666776657104,-0.3051757514476776,73.33333587646484,486.0,1.0,WarmUp
236367.46875,707546.5625,623804.6875,699594.6875,707940.375,708261.375,707898.125,708393.3125,-0.284912109375,0.724609375,0.64013671875,-0.2136230319738388,-1.3427733182907104,-0.3356933295726776,73.33333587646484,487.0,1.0,WarmUp
236369.4375,707642.0625,626366.0,700741.375,708036.125,708357.0625,707993.3125,708489.1875,-0.28759765625,0.725341796875,0.639892578125,-0.3356933295726776,-1.2207030057907104,-0.2746581733226776,73.33333587646484,488.0,1.0,WarmUp
236223.703125,707556.75,625951.5,700156.25,707951.0625,708271.5,707908.3125,708403.5,-0.2890625,0.723876953125,0.640625,-0.3967284858226776,-1.1901854276657104,-0.2746581733226776,73.33333587646484,489.0,1.0,WarmUp
236075.828125,707405.375,623152.1875,698094.75,707798.9375,708119.75,707756.75,708251.5625,-0.289306640625,0.721923828125,0.640869140625,-0.4272460639476776,-1.0375975370407104,-0.0915527269244194,73.33333587646484,490.0,1.0,WarmUp
236105.515625,707360.25,620758.5,695978.5625,707753.6875,708074.4375,707711.875,708206.625,-0.291748046875,0.72265625,0.6396484375,-0.6408690810203552,-1.0070799589157104,-0.0610351525247097,73.33333587646484,491.0,1.0,WarmUp
236296.84375,707534.9375,622580.125,696316.875,707928.875,708249.6875,707886.75,708381.875,-0.29443359375,0.72216796875,0.6396484375,-0.6408690810203552,-0.8544921278953552,-0.0915527269244194,73.33333587646484,492.0,1.0,WarmUp
236317.234375,707643.9375,625322.625,697524.75,708037.3125,708358.625,707995.0,708490.5,-0.297607421875,0.72265625,0.643310546875,-0.5493163466453552,-0.7934569716453552,0.03051757626235485,73.33333587646484,493.0,1.0,WarmUp
236184.09375,707555.75,624970.75,697016.625,707949.1875,708270.375,707907.125,708402.25,-0.296875,0.721923828125,0.641845703125,-0.4882812201976776,-0.8239745497703552,0.03051757626235485,73.33333587646484,494.0,1.0,WarmUp
236029.421875,707398.6875,622124.375,694991.125,707792.4375,708113.375,707750.4375,708245.375,-0.29736328125,0.721923828125,0.64208984375,-0.5493163466453552,-0.8544921278953552,0.0915527269244194,73.33333587646484,495.0,1.0,WarmUp
236045.078125,707349.5,619657.8125,692874.3125,707743.25,708064.25,707700.9375,708195.8125,-0.2978515625,0.720703125,0.642578125,-0.4577636420726776,-0.7934569716453552,0.03051757626235485,73.33333587646484,496.0,1.0,WarmUp
236239.4375,707522.0625,621415.875,693187.0,707915.625,708237.0625,707873.5,708368.5,-0.300048828125,0.72119140625,0.64208984375,-0.4882812201976776,-0.7019042372703552,-0.03051757626235485,73.33333587646484,497.0,1.0,WarmUp
236263.671875,707633.5625,624158.1875,694390.6875,708027.5625,708348.1875,707985.4375,708480.125,-0.30078125,0.72119140625,0.6435546875,-0.4272460639476776,-0.7629393935203552,0.03051757626235485,73.33333587646484,498.0,1.0,WarmUp
236115.703125,707548.625,623815.875,693901.25,707941.8125,708263.0,707900.1875,708395.0625,-0.300537109375,0.72265625,0.643310546875,-0.4577636420726776,-0.7019042372703552,0.0610351525247097,73.33333587646484,499.0,1.0,WarmUp
235961.125,707392.0,620970.9375,691896.125,707785.125,708106.25,707743.5,708238.1875,-0.300048828125,0.72265625,0.642333984375,-0.4577636420726776,-0.8239745497703552,0.03051757626235485,73.33333587646484,500.0,1.0,WarmUp
235998.046875,707347.0625,618540.375,689816.0625,707740.5,708061.75,707698.8125,708193.4375,-0.299560546875,0.722900390625,0.641357421875,-0.4882812201976776,-0.8544921278953552,0.03051757626235485,73.33333587646484,501.0,1.0,WarmUp
236195.28125,707527.4375,620470.0,690248.5625,707921.0,708242.125,707879.0625,708374.0,-0.299560546875,0.720458984375,0.64013671875,-0.5493163466453552,-1.0070799589157104,0.0610351525247097,73.33333587646484,502.0,1.0,WarmUp
236193.21875,707623.1875,623002.4375,691352.8125,708016.5,708337.75,707974.125,708469.3125,-0.30126953125,0.719970703125,0.63916015625,-0.5187987685203552,-1.0986326932907104,0.03051757626235485,73.33333587646484,503.0,1.0,WarmUp
236052.671875,707538.8125,622570.6875,690808.6875,707932.1875,708253.0625,707889.875,708385.0,-0.301513671875,0.72119140625,0.638671875,-0.5187987685203552,-1.0681151151657104,0.0,73.33333587646484,504.0,1.0,WarmUp
235898.625,707384.5625,619763.375,688839.9375,707778.1875,708098.8125,707735.75,708230.6875,-0.301513671875,0.721435546875,0.641845703125,-0.5493163466453552,-1.1291502714157104,-0.03051757626235485,73.33333587646484,505.0,1.0,WarmUp
235926.96875,707334.125,617241.9375,686730.375,707727.625,708048.25,707685.5,708180.125,-0.29931640625,0.72265625,0.640869140625,-0.5493163466453552,-1.1291502714157104,0.03051757626235485,73.33333587646484,506.0,1.0,WarmUp
236131.53125,707511.25,618957.75,687037.3125,707904.875,708225.3125,707862.5,708357.3125,-0.2978515625,0.72119140625,0.640869140625,-0.6408690810203552,-1.2207030057907104,0.0610351525247097,73.33333587646484,507.0,1.0,WarmUp
236161.21875,707630.4375,621758.125,688284.8125,708024.0,708344.625,707981.4375,708476.375,-0.298828125,0.7197265625,0.63525390625,-0.6713866591453552,-1.3122557401657104,0.0915527269244194,73.33333587646484,508.0,1.0,WarmUp
236016.640625,707544.75,621473.1875,687843.75,707938.25,708259.125,707895.6875,708390.625,-0.300537109375,0.71875,0.634765625,-0.6713866591453552,-1.3427733182907104,0.1220703050494194,73.33333587646484,509.0,1.0,WarmUp
235866.609375,707387.875,618652.125,685876.1875,707781.3125,708102.0625,707738.6875,708233.75,-0.2998046875,0.716796875,0.634765625,-0.6103515028953552,-1.4648436307907104,0.0915527269244194,73.33333587646484,510.0,1.0,WarmUp
235892.09375,707332.5,616075.6875,683744.875,707726.0625,708047.25,707683.8125,708178.75,-0.299560546875,0.717529296875,0.634033203125,-0.5493163466453552,-1.5869139432907104,0.0915527269244194,73.33333587646484,511.0,1.0,WarmUp
236080.65625,707502.0625,617718.5,684006.625,707895.5,708216.9375,707853.0625,708348.375,-0.2978515625,0.717041015625,0.63671875,-0.4882812201976776,-1.6174315214157104,-0.03051757626235485,73.33333587646484,512.0,1.0,WarmUp
236110.515625,707619.4375,620524.0,685258.3125,708013.0,708334.0625,707970.375,708465.8125,-0.298583984375,0.718017578125,0.639404296875,-0.4577636420726776,-1.5258787870407104,-0.0915527269244194,73.33333587646484,513.0,1.0,WarmUp
235977.125,707538.3125,620276.6875,684851.375,707931.625,708252.6875,707889.25,708384.3125,-0.29833984375,0.71826171875,0.6416015625,-0.3967284858226776,-1.5258787870407104,-0.2136230319738388,73.33333587646484,514.0,1.0,WarmUp
235822.1875,707380.625,617461.875,682895.0625,707774.0,708095.3125,707732.0,708226.5625,-0.298583984375,0.7197265625,0.63916015625,-0.3051757514476776,-1.5563963651657104,-0.1831054538488388,73.33333587646484,515.0,1.0,WarmUp
235840.0625,707322.875,614829.3125,680800.3125,707716.0625,708037.3125,707674.3125,708168.8125,-0.296630859375,0.719970703125,0.64013671875,-0.3662109076976776,-1.4953612089157104,-0.2746581733226776,73.33333587646484,516.0,1.0,WarmUp
236037.03125,707494.875,616411.6875,681236.4375,707887.75,708209.125,707845.625,708340.75,-0.29833984375,0.720947265625,0.64111328125,-0.3662109076976776,-1.6479490995407104,-0.3356933295726776,73.33333587646484,517.0,1.0,WarmUp
236069.5625,707616.5625,619230.625,682569.8125,708009.6875,708330.8125,707967.5,708462.8125,-0.299560546875,0.7216796875,0.642333984375,-0.3662109076976776,-1.7089842557907104,-0.3356933295726776,73.33333587646484,518.0,1.0,WarmUp
235944.046875,707538.875,619025.4375,682183.25,707932.0,708253.125,707890.0,708385.0,-0.298095703125,0.72412109375,0.640869140625,-0.3662109076976776,-1.7395018339157104,-0.2746581733226776,73.33333587646484,519.0,1.0,WarmUp
235792.046875,707378.1875,616213.75,680272.9375,707771.5,708092.5625,707729.0625,708224.0625,-0.297607421875,0.721435546875,0.641845703125,-0.4882812201976776,-1.8615721464157104,-0.3051757514476776,73.33333587646484,520.0,1.0,WarmUp
235800.90625,707317.9375,613567.0625,678323.0625,707711.0,708032.5,707669.0625,708164.125,-0.29638671875,0.72216796875,0.64013671875,-0.4272460639476776,-1.8310545682907104,-0.2746581733226776,73.33333587646484,521.0,1.0,WarmUp
235997.6875,707495.875,615297.9375,678932.75,707889.0625,708210.6875,707847.4375,708342.375,-0.296875,0.72021484375,0.6416015625,-0.4577636420726776,-1.7700194120407104,-0.1831054538488388,73.33333587646484,522.0,1.0,WarmUp
236013.953125,707601.25,617902.125,680341.1875,707994.5,708316.375,707952.75,708447.5,-0.297119140625,0.7197265625,0.641357421875,-0.4272460639476776,-1.7700194120407104,-0.0915527269244194,73.33333587646484,523.0,1.0,WarmUp
235874.75,707518.125,617577.125,680132.25,707910.875,708232.875,707869.4375,708364.1875,-0.297607421875,0.72021484375,0.641845703125,-0.3967284858226776,-1.6784666776657104,-0.0610351525247097,73.33333587646484,524.0,1.0,WarmUp
235732.0625,707365.625,614777.875,678448.6875,707758.375,708079.6875,707716.625,708211.75,-0.297607421875,0.71923828125,0.638916015625,-0.4577636420726776,-1.6784666776657104,0.0,73.33333587646484,525.0,1.0,WarmUp
235750.125,707304.375,612069.8125,676509.375,707697.3125,708018.25,707655.0,708150.625,-0.296875,0.71875,0.64111328125,-0.4577636420726776,-1.6174315214157104,0.03051757626235485,73.33333587646484,526.0,1.0,WarmUp
235952.53125,707475.1875,613594.75,676949.4375,707868.25,708189.5,707826.25,708321.625,-0.296630859375,0.7197265625,0.639892578125,-0.4272460639476776,-1.6479490995407104,0.1525878757238388,73.33333587646484,527.0,1.0,WarmUp
